! Center RA: 22 02 43.29137,  Dec: +42 16 39.97987 (2000.0)
! Established model.
! Flux (Jy) Radius (mas)  Theta (deg)  Major FWHM (mas)  Axial ratio   Phi (deg) T \
! Freq (Hz)     SpecIndex
  0.754729      0.00000      0.00000 
  0.545649    0.0200000      0.00000 
 0.0244153     0.121655     -170.538 
 0.0340951     0.141421     -171.870 
 0.0503901    0.0400000      0.00000 
  0.142397     0.161245     -172.875 
 0.0101191    0.0447214      26.5651 
  0.140426    0.0632456      18.4349 
 0.0437667     0.181108     -173.660 
 0.0179241     0.203961     -168.690 
 0.0248920     0.325576     -169.380 
 0.0705612     0.345254     -169.992 
 0.0255288    0.0600000      0.00000 
 0.0602486     0.364966     -170.538 
 0.0118631     0.164924     -165.964 
 0.0898513    0.0824621      14.0362 
 0.0673518     0.145602     -164.055 
 0.0337766     0.384708     -171.027 
 0.0306618     0.388330     -168.111 
 0.0628358     0.101980      11.3099 
 0.0171972     0.404475     -171.469 
 0.0323588     0.407922     -168.690 
0.00963534     0.200000      180.000 
0.00251793     0.126491     -161.565 
0.00914208     0.116619     -149.036 
 0.0124364     0.424264     -171.870 
 0.0151116     0.121655      9.46232 
 0.0153171     0.220907      174.806 
0.00799143     0.100000     -143.130 
0.00595709     0.427551     -169.216 
 0.0130068     0.164924      14.0362 
0.00547930     0.398497     -162.474 
0.00853886    0.0848528     -135.000 
0.00585752    0.0800000      0.00000 
 0.0124080     0.386264     -158.749 
0.00169555     0.444072     -172.235 
0.00941209     0.189737      18.4349 
 0.0133118     0.240832      175.236 
0.00462322    0.0447214     -26.5651 
0.00472549     0.441814     -174.806 
0.00793005     0.113137     -135.000 
 0.0227998     0.208806      16.6992 
0.00918900     0.461736     -175.030 
 0.0145040    0.0632456     -18.4349 
0.00395520     0.367696     -157.620 
0.00127248     0.260768      175.601 
 0.0123002     0.100000     -126.870 
 0.0157967     0.375766     -154.799 
0.00301460     0.243310      170.538 
0.00977584     0.263059      171.254 
0.00717893     0.481664     -175.236 
0.00194926     0.282843      171.870 
0.00643517      1.45121     -172.875 
0.00114917     0.360555      176.820 
0.00723069     0.501597     -175.426 
 0.0113680      1.45382     -172.093 
 0.0197282     0.357771     -153.435 
0.000860065     0.322490      172.875 
 0.0104155     0.215407      21.8014 
0.00164919     0.223607      169.695 
0.00516394     0.342345      173.290 
0.00156071      1.47105     -172.972 
0.00426616     0.203961      168.690 
0.00599825     0.141421     -135.000 
0.000765380     0.228035      15.2551 
0.00361121      1.48054     -178.452 
0.00521313     0.128062     -128.660 
0.000729433      1.65747     -171.674 
0.00142326      1.47363     -172.200 
0.00373952      1.67726     -171.773 
0.00137221    0.0721110     -33.6901 
 0.0152378     0.184391      167.471 
0.00557013      1.34000      180.000 
0.00549041      1.62505     -166.477 
0.00374476     0.300666      3.81407 
0.000677099      1.60562     -166.310 
0.00772659      1.65469     -172.360 
0.00117515      1.50053     -178.472 
0.00125561    0.0721110      33.6901 
0.00444937     0.362215      173.660 
0.000629797    0.0721110     -56.3099 
0.000625512      1.52118     -177.739 
0.00116403      1.54117     -177.769 
0.000592033      1.67451     -172.451 
0.00584275      1.36308     -165.556 
0.00469061    0.0721110      56.3099 
0.00460807      1.66301     -176.553 
0.00214014    0.0848528     -45.0000 
0.00290359     0.521536     -175.601 
0.00406213      1.69706     -171.870 
0.00672464     0.320000      0.00000 
0.00749662      1.32000      180.000 
0.000541724      1.86526     -175.696 
0.00788698      1.88521     -175.741 
0.00100973     0.116619     -120.964 
0.00305463      1.64451     -166.640 
0.00807161     0.223607      26.5651 
0.00500374     0.523450     -173.418 
0.00256502      1.52053     -178.493 
0.00567007      1.34373     -165.343 
0.00136133    0.0894427     -63.4349 
0.00132107      1.94987     -169.958 
0.00198107     0.382099      173.991 
0.00351274      1.43402     -171.983 
0.00542283      1.96957     -170.059 
0.00187675      1.66397     -166.799 
0.00197766      1.64195     -177.207 
0.00281104    0.0800000      90.0000 
0.00480592     0.100000     -53.1301 
0.00296378      2.28543     -171.444 
0.00196842     0.384708      171.027 
0.00414724      1.64924     -165.964 
0.00473395     0.402492     -153.435 
0.000382642      1.79254     -169.066 
0.00241704      2.46203     -177.672 
0.00638193    0.0824621      75.9638 
0.000377910      2.26874     -170.870 
0.000720251      2.15379     -169.838 
0.00443532      1.90515     -175.786 
0.00173746      1.32015      179.132 
0.00469731     0.404475      171.469 
0.000361200      1.79644     -168.440 
0.00479967      1.98927     -170.159 
0.00270397     0.809938     -159.775 
0.00112927      2.35228     -174.144 
0.000499048     0.156205     -140.194 
0.000343962      1.81604     -168.566 
0.00210084      2.35032     -174.629 
0.00515241     0.340588     -3.36646 
0.000945379     0.126491     -108.435 
0.00117747      1.52013     -179.246 
0.00264887      2.15741     -169.315 
0.000950719     0.769415     -152.103 
0.00109101      1.30000      180.000 
0.00262263      1.10653     -173.774 
0.00136856      1.66193     -177.241 
0.000328170     0.216333     -146.310 
0.00450576      1.26649     -158.703 
0.000903805      1.50013     -179.236 
0.000320650      1.80056     -167.816 
0.00113367     0.233238     -149.036 
0.00431054     0.667533      171.384 
0.000303243      1.82011     -167.949 
0.00317438      2.48129     -178.152 
0.00157203      2.30521     -171.518 
0.000821666      1.83967     -168.079 
0.00510361     0.778974     -150.803 
0.000285289      2.01246     -169.695 
0.000280695      1.91416     -169.160 
0.00115277      1.35823     -166.373 
0.000481791      2.03214     -169.796 
0.00422055      2.30009     -179.502 
0.00214286     0.121655     -99.4623 
0.00288248      2.20581     -175.840 
0.00801405      1.63230     -172.962 
0.00294087      2.77417     -174.207 
0.00227554     0.295296     -151.699 
0.000693103      1.99279     -169.592 
0.00247203      1.62985     -165.793 
0.00117943      2.17366     -167.242 
0.00269807     0.506360     -170.910 
0.00379965     0.113137     -45.0000 
0.00243455     0.456070      164.745 
0.000723159      1.82439     -167.335 
0.00115712      7.33741      174.212 
0.00276233      1.08665     -173.660 
0.00176666      1.52000      180.000 
0.00304387      2.90110     -178.420 
0.000688574      2.02010      179.433 
0.00305997     0.233238      30.9638 
0.00164181     0.170880      159.444 
0.00235637     0.942550     -162.719 
0.00499340     0.340000     -151.928 
0.000843465      1.84391     -167.471 
0.00117159      1.90379     -176.386 
0.000896033      7.29367      174.493 
0.00203030      2.79407     -174.249 
0.00107474      2.37023     -174.674 
0.000771094      7.35935      174.072 
0.00191190      2.15870     -166.608 
0.00269468      1.30015      179.119 
0.00111715      2.00010      179.427 
0.000396356      2.30000      180.000 
0.000568984      2.92062     -178.823 
0.00225919      2.18742     -175.280 
0.000384918      2.28849     -170.949 
0.00127114      1.88383     -176.348 
0.00236498     0.100000      90.0000 
0.000197787      1.54000      180.000 
0.00249332      2.60123      178.238 
0.000194975      1.24788     -158.369 
0.00441014      2.00898     -170.256 
0.00137519      1.82888     -166.724 
0.00176862      1.25539     -157.521 
0.00219979     0.461736      162.350 
0.000374917      2.12462      176.222 
0.000869942      1.54013      179.256 
0.000480038      2.38134      178.075 
0.00136547      2.12603      175.684 
0.00225982      3.33017     -175.522 
0.000333814      7.27186      174.634 
0.00125828      2.48202     -177.691 
-0.00145465      3.35744     -171.435 
0.000471712      2.30825     -171.027 
0.000742223      7.40122      173.950 
0.00100108      2.37217     -174.193 
0.000312966      1.54052      178.512 
0.000302334     0.120000     -90.0000 
0.000850834      1.61047     -165.619 
-0.00168368      4.99103      153.846 
0.00127185      2.64764     -169.114 
0.000864015      1.56115      177.797 
0.00338287      5.01761     -167.570 
0.000830854      1.84835     -166.866 
0.000429121      7.27002      174.791 
0.000151744      1.98000      180.000 
0.000820238      2.92110     -178.431 
0.000952352      4.28789     -169.791 
0.000279383      1.96000      180.000 
0.000335612      1.68190     -177.274 
0.000402431      1.10454     -174.806 
0.000538383      1.20748     -153.435 
0.000280825      5.77235     -165.964 
0.000140545     0.750733     -138.240 
0.000274188      2.17816     -166.729 
-0.000530083      6.62239      169.912 
0.000657975     0.101980      78.6901 
0.000995416     0.128062     -51.3402 
-0.000398359      5.46059      155.782 
-0.000522811      5.96450      174.806 
0.000518262      1.56205      177.064 
0.00143456      5.79175     -166.012 
0.000264594     0.749667     -136.081 
0.000747791      4.12311     -165.964 
0.000261164     0.228035      37.8750 
0.000389856      3.20506     -172.831 
0.00214951      1.75841     -160.741 
0.000164228      3.02060      178.862 
0.000383072     0.787147     -152.784 
0.000129046      5.77723     -165.771 
0.000253804      3.54993     -172.555 
0.000127516      2.79213     -174.657 
0.000127277      2.32499     -171.591 
-0.000252249     0.600333     -150.018 
0.000125365      3.20762     -172.476 
0.000125165      3.04164      178.116 
0.00250460     0.985089      174.174 
0.00106563      1.68428     -175.914 
0.000628769      1.64985     -173.737 
0.00226435      1.85785     -165.665 
0.000802218      2.38730     -171.327 
0.000913886      1.78011      179.356 
0.000763520      2.39040     -170.853 
0.00157616      2.32362     -166.562 
0.000491412      2.39207     -174.242 
0.000861635     0.487032      160.821 
0.00207416      1.28000      180.000 
0.000758652      2.39015     -174.719 
0.00174380      1.70294     -176.634 
0.00106909     0.493964      158.629 
0.000317439      1.78045      178.713 
0.000313345      2.41015     -170.929 
0.00144115      1.44069     -166.350 
0.000815045      1.84358     -164.908 
0.000307366     0.101980     -78.6901 
0.000991497     0.965194      174.053 
0.000450515      2.58031      179.112 
0.00156894     0.200998      174.289 
0.000302103     0.141421      45.0000 
0.00175775      2.79034     -175.066 
0.000149869      1.77088     -161.565 
0.00114347      1.76045      178.698 
0.000559684      2.59422     -170.683 
0.000689500     0.107703     -68.1986 
0.00196953     0.169706      45.0000 
0.000565564     0.156205      39.8056 
0.00254125      3.16538     -172.740 
0.00199440      2.60069      178.678 
0.000522822      2.86252     -177.597 
0.00110054      2.78539     -167.560 
0.000238313     0.528015      155.376 
0.000642230      6.68048      179.314 
0.00139996     0.581378      153.435 
0.000835721     0.832586     -155.898 
0.000372310      2.32835     -166.083 
0.000703205     0.116619     -59.0362 
0.000927918      1.42127     -166.159 
0.00148794      6.66048      179.312 
0.000679280      1.16276     -176.055 
0.00174217      4.51668     -166.948 
0.000445778      2.88174     -178.011 
0.000230772      7.36133      178.910 
0.00272798      5.30094     -178.919 
0.000228934      3.00107      178.472 
-0.00823048     0.360555      19.4400 
0.000803286      2.30894     -165.964 
0.000573804      7.24003      179.842 
0.00106140      2.61725     -170.322 
0.00119249      3.12083     -164.004 
0.000891685     0.987320      173.019 
0.000207079      2.48290     -177.230 
0.000216659      3.02166      178.103 
0.000109612      2.02869     -170.352 
-0.00210916      5.57857     -158.771 
0.000896307      7.38173      178.758 
0.00104048     0.401995      174.289 
0.000274217      2.16749     -175.236 
0.00283828      7.19347     -176.493 
0.00236679     0.322490     -150.255 
0.000639726      7.08045     -179.353 
0.000546592      2.98221     -170.348 
0.000203857      1.74046      178.683 
0.000826665      2.60584     -162.121 
0.00117269      3.02238      177.725 
0.000484182      1.56461      175.601 
0.00156779      4.90979     -164.888 
0.000197160     0.843090     -157.694 
0.00142080      1.14280     -175.986 
0.000101004      1.41662     -166.945 
0.00187634      4.11830     -166.234 
0.000196002      2.42528      176.217 
0.000423786     0.814125     -152.176 
0.000386565     0.184391      40.6013 
0.000287736      1.32061      178.264 
0.000586562      2.80492     -167.648 
0.000791972      6.82847     -177.146 
0.000193377      4.42922     -165.085 
0.000371429     0.172047      35.5377 
0.00162846      4.85572      156.708 
0.00118803     0.854400     -159.444 
0.000372246      3.44006     -169.278 
0.000450711      4.53171     -167.252 
0.000746355      2.81027     -175.101 
0.000852352      5.44301     -174.729 
0.00117182      1.73954     -160.523 
0.00158950      5.64907     -176.753 
0.00105004      4.28439     -170.054 
0.00301898      4.87409      156.801 
0.000939861      4.62450     -169.030 
0.000621279      8.47738      169.671 
0.00243931      4.40009      174.523 
0.000608435      4.41511     -164.768 
0.000419408      1.74103      178.025 
0.00140425      6.12003     -179.813 
0.00159885      2.09990     -162.255 
9.10036e-05      1.56627      174.872 
9.04756e-05      5.15228     -170.391 
-0.000177945      3.55736     -148.097 
0.000912921      3.16796     -172.381 
8.97344e-05      2.44663      175.781 
0.00122807      3.55550     -162.992 
0.000496831      1.34134      177.436 
0.000737181      4.62074     -169.274 
0.000339030      5.30136     -178.703 
0.000590184     0.188680      32.0054 
0.000396243      5.13256     -170.354 
0.00145038      6.68075      179.142 
0.000253678     0.806226     -150.255 
0.000515555      3.42421     -168.887 
0.000679396      7.55272      170.089 
-0.00191956     0.608276     -152.592 
0.00119997      5.27894     -173.037 
-0.00192656      3.55106     -147.653 
0.000359229      2.42669      175.746 
0.000462694      3.55533     -171.915 
-0.00129092      4.95516      153.642 
0.00137006     0.128062     -38.6598 
0.000614937      2.64038     -169.967 
0.00117413      3.10161     -163.902 
0.00129193      4.86016     -179.528 
0.000534619     0.424264      171.870 
0.000685241      4.79521      173.053 
0.000903711      1.22540     -153.853 
0.000958596      3.32866     -175.865 
0.00149335      3.34150      178.285 
0.000913112      1.58619      174.936 
0.000162857      3.18522     -172.786 
0.00109089      2.12339      176.760 
0.00149133      5.40370     -165.861 
0.000936107     0.205913      29.0546 
7.91006e-05      3.08759     -169.928 
-0.00527223      1.09563     -158.587 
0.000416381     0.563560      152.526 
0.000228992      6.77032     -174.576 
7.85523e-05     0.782304     -147.529 
0.000354675      5.42498     -174.500 
0.000576630      4.45982      169.144 
0.000980599      8.50066      169.563 
0.000719702      1.84889     -164.310 
0.000616554      3.02324      177.346 
0.000723967      2.62069      178.688 
0.00216709      1.27812     -159.864 
0.000145815     0.536656      153.435 
7.46810e-05      6.82750     -177.314 
0.00161095      5.47416      153.997 
0.000430893      2.14756     -175.192 
0.000284371      1.34239      176.583 
0.000207848      2.59307     -161.565 
0.000830690      4.98129     -174.701 
-0.00118312      4.07141     -149.278 
0.000563046      7.24011      179.683 
-0.00119509      6.19787      167.892 
0.000709547      6.77224     -174.407 
0.00116462      3.55258     -172.235 
0.00172264     0.349857     -149.036 
0.000208664     0.788923     -149.534 
0.00169218      4.81900     -156.520 
0.000142639     0.141421     -45.0000 
0.000209768      4.21203      170.985 
0.000205529      6.80753     -177.306 
7.17350e-05      2.80863     -175.507 
0.00138169      3.24728      172.569 
0.000729729      4.22474      177.287 
0.00134937      4.34166      165.324 
0.000312400      1.72105      178.002 
0.000317154      5.21463      173.393 
-0.000396776      2.65962      167.845 
7.05630e-05      3.10728     -169.992 
7.00105e-05      7.22003      179.841 
0.00116550      4.28098     -170.318 
0.000264018      1.70423     -175.962 
-0.00206381     0.404475      8.53077 
0.000518781      5.38431     -165.809 
0.000322632      3.12775     -175.967 
0.00164795     0.545894      151.557 
0.000777266      1.32740     -173.946 
6.86743e-05      7.37501      170.793 
0.000312215      7.36174      178.755 
6.80009e-05      2.88250     -177.614 
-0.000944326      6.40013      179.642 
0.000598276      4.51221     -167.196 
0.000184780      3.09115     -169.563 
0.000485750      4.14309     -177.787 
0.00116545      6.93196      166.485 
0.000624177      7.99812      174.403 
0.000740791      4.77535      173.024 
0.000255344      6.02249     -175.047 
0.000130875      1.34373      175.732 
0.00223279      4.18918      171.212 
0.00124218      6.12000      180.000 
0.00141931     0.234094      19.9831 
-0.000501148      5.70929      159.280 
0.000189313     0.444072      172.235 
0.000682272      6.58741      171.796 
-0.00120144      5.68570     -174.550 
0.000128017     0.796492     -151.504 
0.000302251      5.44489     -174.520 
-0.00119283      8.14710      177.608 
0.000390249      1.46014     -166.535 
0.000911087      6.61465     -176.186 
8.80272e-05     0.181108      173.660 
0.000303279      1.34536      174.883 
-0.000801521      5.81378     -176.055 
6.31145e-05      4.83223      162.165 
0.00180298      3.18779     -172.429 
0.000226011      7.31552      174.352 
0.000179461     0.847585     -160.710 
-0.00188984     0.617414     -155.095 
0.000446932      1.72070     -160.301 
0.000411402      7.53302      170.063 
0.000464620      1.12285     -175.914 
0.000421293      4.16308     -177.797 
0.000517973      3.40459     -168.822 
0.000430489     0.804984     -153.435 
0.00101972      4.83839      161.940 
0.00134510      5.66579      174.531 
0.000337826      5.49753     -170.366 
0.000597485      2.96446     -150.495 
0.000198080      6.00257     -175.030 
0.000281222      3.11082     -169.629 
0.000458974      3.02424      176.967 
0.000478607      3.54232     -162.588 
-0.00116415      6.42028      179.465 
-0.00144872      2.64008      167.754 
0.00119960      4.35821     -155.317 
0.000395162      6.69104     -170.538 
0.000667719      5.12925     -170.574 
0.000330143      5.98441     -174.823 
0.000114526     0.835703     -158.962 
0.000762372      3.12640     -176.332 
0.00102322      5.78695     -166.204 
5.81200e-05     0.470744      167.735 
0.000333538      5.65024     -176.550 
0.000377305      2.58054     -161.003 
-0.00114981      5.13034      162.766 
0.000671405      7.26044      179.369 
0.000281143      2.89088      169.234 
0.000396688      4.99808     -167.521 
5.77521e-05      3.08240     -163.799 
0.000205065      6.80850     -177.138 
0.00109856      1.32544      174.806 
-0.000335430      7.23903     -167.231 
0.000928904      5.66904     -176.764 
0.000162458     0.466905      170.134 
0.000162509      5.96634     -174.614 
0.000632676      5.46293     -174.749 
0.00101595      4.58855     -176.502 
0.000538029      6.75432     -174.222 
0.000677518      6.78024     -171.177 
-0.000638652      3.63186      172.405 
0.000237997      3.92703      173.273 
0.000108170     0.904434     -161.966 
0.000644377      3.49794     -154.607 
0.000106041      4.99448      175.636 
0.000102792      1.61505     -172.171 
0.000934446     0.128062      51.3402 
0.000106417      3.03058     -163.120 
0.000104521      4.20894      171.254 
0.000251300      4.85971     -172.670 
0.000155494      7.38219      178.603 
0.000200059      5.23450      173.418 
0.000204322      3.43837     -150.751 
0.00126038      2.88721      169.624 
