! Center RA: 12 24 54.45839,  Dec: +21 22 46.38856 (2000.0)
! Established model.
! Flux (Jy) Radius (mas)  Theta (deg)  Major FWHM (mas)  Axial ratio   Phi (deg) T \
! Freq (Hz)     SpecIndex
  0.292734    0.0848528      45.0000 
  0.138447      0.00000      0.00000 
 0.0796554     0.384187     -128.660 
 0.0313908     0.424264     -135.000 
 0.0780345     0.468615     -129.806 
 0.0120400     0.169706      45.0000 
 0.0111863     0.254558      45.0000 
 0.0855547    0.0848528     -135.000 
 0.0332820     0.339411      45.0000 
 0.0682205     0.553173     -130.601 
 0.0296932     0.424264      45.0000 
 0.0248700     0.468615      39.8056 
0.00929842     0.553173      40.6013 
 0.0254207     0.637809     -131.186 
0.00301976     0.593970     -135.000 
0.00581824     0.134164      63.4349 
0.00292688     0.637809      41.1859 
0.00833917     0.684105      37.8750 
 0.0515808     0.216333     -123.690 
 0.0297173     0.216333      56.3099 
 0.0235704     0.768375      38.6598 
 0.0325282     0.678822     -135.000 
0.00244507     0.169706     -135.000 
 0.0221335     0.852760      39.2894 
 0.0319748     0.722496     -131.634 
 0.0113069     0.189737      71.5651 
0.00328410     0.300000      53.1301 
0.00624689     0.816088      36.0274 
 0.0118641     0.900000      36.8699 
0.00262901     0.516140      35.5377 
0.00874924     0.180000      90.0000 
0.00132124     0.648999      33.6901 
 0.0268463     0.763675     -135.000 
0.00228259     0.566039      32.0054 
0.00650267     0.948683      34.6952 
0.00703254     0.189737      108.435 
0.00428993     0.699714      30.9638 
 0.0181074     0.268328     -116.565 
0.00370770     0.617738      29.0546 
0.00280065      1.03228      35.5377 
0.00187078     0.998599      32.7352 
0.00569264     0.216333      123.690 
0.00252704      1.08167      33.6901 
 0.0150196     0.670820      26.5651 
0.00371385     0.216333      146.310 
0.00308984      1.13208      32.0054 
0.000858142     0.816088      53.9726 
0.00255637      1.18338      30.4655 
0.00838813      2.46000      12.6804 
 0.0159098     0.804984      63.4349 
0.00429628      1.23548      29.0546 
0.00627364     0.254558      135.000 
0.00462052     0.722496     -138.366 
0.00845766     0.724983      24.4440 
0.00531097     0.268328      153.435 
0.00266507      2.40150      12.9946 
0.00463906      1.28825      27.7585 
0.00505539      1.34164      26.5651 
0.000460017      2.71662      6.34019 
0.000456265      2.28473      13.6713 
0.00665995      3.36856     -4.08562 
0.000446176      2.22648      14.0362 
0.00200563      2.77626      6.20345 
0.000434170      2.51857      12.3808 
0.00128015      2.11026      14.8265 
0.00756632      1.39556      25.4633 
0.00236078      3.30872     -4.15964 
0.000410438     0.305941     -101.310 
0.000410058      2.57721      12.0948 
0.00318076      2.05232      15.2551 
0.000767645      2.63591      11.8215 
0.00102506     0.751798      28.6105 
0.00140914     0.300000     -90.0000 
0.00172446     0.305941      168.690 
0.00419391      1.99449      15.7086 
0.00136677      2.69466      11.5601 
0.00242772     0.780000      67.3801 
0.00590150      3.73738      5.52754 
0.00123958      2.70599      3.81407 
0.00214280      1.31590      24.2277 
0.00483586     0.268328      116.565 
0.00121153     0.305941     -78.6901 
0.000313056      2.77042      4.96974 
0.00185464      4.17507     -7.43141 
0.00164698      2.70732      12.8043 
0.000554967     0.300000      180.000 
0.00292943      2.84289      7.27500 
0.00350765     0.360000      180.000 
0.00124368      1.37084      23.1986 
0.00271189      4.23457     -7.32641 
0.00267127     0.402492     -63.4349 
0.000512581      2.64273      2.60256 
0.000260821      2.44311      24.6769 
0.00198825     0.300000      90.0000 
0.00141179      2.49776      24.1022 
0.00376510      4.32000      0.00000 
0.00532878     0.768375     -141.340 
0.00318515      2.90241      7.12502 
0.000227616      2.85237      14.6209 
0.000227613      2.64068      1.30195 
0.00217472     0.364966     -170.538 
0.00127775      11.1196      3.40277 
0.000430464      2.01693      30.3791 
0.00140730      2.82574     -3.65222 
0.000217804      2.86810      15.7808 
0.000837440      3.18961     -16.3895 
0.00141818      4.29409     -7.22432 
0.00247946     0.432666     -56.3099 
0.00149713      2.92588      15.4612 
0.000400411      2.55265      23.5523 
-0.00276999      1.26570      58.5704 
0.000396447      3.37337     -5.10217 
0.00114601      1.96540      31.2637 
0.00174771      3.24721     -16.0908 
0.00358544      11.1761      3.07746 
-0.00226630      1.23548      60.9454 
0.000873862      4.32208     -13.6504 
0.00100411      2.60776      23.0255 
0.00124301      4.35362     -7.12502 
0.000702920      10.6405      3.55618 
0.000468348      3.43313     -5.01311 
0.000983755      2.88998     -4.76364 
0.00167529      5.67563     -13.4486 
0.00119300      3.63186     -7.59464 
0.00169925      1.91437      32.1957 
0.000653290      4.41316     -7.02840 
0.000705685      4.38041     -13.4652 
0.00102776     0.742159     -104.036 
0.000935643      4.38000      0.00000 
0.000169707      3.26435     -17.1027 
-0.00398779      1.21491      57.0948 
0.00147578      4.39477     -14.2260 
0.00145450      2.54275     -19.2900 
0.00282365      3.32175     -16.7984 
0.00244036      11.1117      6.51102 
0.00113041      2.94245      16.5873 
0.00184147      10.5806      3.57633 
0.00115913      4.32042     0.795724 
0.00100858      4.99191     -13.2011 
0.000302523      2.76586     -3.73140 
0.000301279      4.47272     -6.93435 
0.00180735      3.67766      5.61758 
0.000708610      4.53228     -6.84277 
0.000949455      11.0441     -1.55657 
0.000895802      3.65262      14.2645 
-0.000814002      22.0161     -11.1568 
0.000676041      1.93680      16.1892 
0.000513988      2.83019     -4.86451 
0.000391046      2.69666      20.8545 
0.000506497      4.92000     -12.6804 
0.000897196      1.86387      33.1785 
0.000133598      3.69134     -7.47156 
0.000514770      4.59186     -6.75357 
0.000508740      1.80000      53.1301 
0.000807268      4.33663     -14.4208 
0.000477398      17.2359     -7.19923 
0.000250752      11.5108     -5.38370 
0.00104199      4.38041     0.784825 
-0.000739240      20.2320     -26.4131 
0.00170713      5.46824     -3.14496 
0.000125549      11.5705     -5.35583 
0.00256967      12.2278      5.06716 
0.000388703      4.16773     -6.61346 
0.00114325      12.2876      5.04245 
0.000121303      4.65145     -6.66666 
0.000630411      2.77950      13.7363 
0.000213387      2.76586      12.5288 
0.00106667      3.56483     -6.76618 
0.000323722      2.85110      8.47114 
0.000196788      2.79435      14.9314 
0.000374618      2.81041      16.1134 
0.00141932      4.22734     -6.51980 
0.000188237      2.14411      17.9279 
0.00132406      3.57239     -7.72183 
0.000511402      2.08710      18.4349 
0.000517100      2.88500      16.9275 
0.00100186      4.89690     -7.03794 
0.000915529      2.01157      17.3540 
0.000173325      4.88991     -6.34019 
0.000646795      10.5002     0.327401 
0.000910705      4.94955     -6.26349 
0.000166331      10.5602     0.325541 
0.000166107      4.16255     -15.0378 
0.000162706      2.84605      18.4349 
0.000598925      2.06891      16.8584 
0.00130467      4.00565     -16.5348 
0.000160577      2.52071     -1.36393 
0.000156354      5.00919     -6.18862 
0.000154152      2.90303      18.0605 
0.00130755      4.97855     -12.5288 
0.00162475      11.0426     -1.24536 
0.00185268      5.35212     -3.85680 
0.000152175      2.58279     -2.66300 
0.000579465      10.3802     0.331186 
0.00144718      1.83172      31.6075 
0.000428595      2.86559      19.5731 
0.000676874      3.61796      5.71059 
0.000544521      1.92000      0.00000 
0.000662874      11.2360      3.06103 
0.000756820      1.04957      30.9638 
0.000141531     0.339411     -135.000 
0.000404626      3.36268     -15.5241 
0.000402385     0.300000     -126.870 
0.000515777      3.50525     -6.88172 
0.000265123      10.3202     0.333111 
0.000380875      4.95645     -6.95296 
0.00188112      1.87446      50.1944 
0.00143703      11.2309      6.44160 
0.000290074      2.88624      20.6955 
0.000131456      2.64613     -3.90049 
0.000256877      10.6202     0.323702 
0.000129903      4.22052     -14.8265 
0.00117436     0.323110     -111.801 
0.000601297      10.5207      3.59672 
0.000882305      2.94245      20.2826 
0.000575408      3.30491     -15.8025 
0.000578874      10.2602     0.335059 
0.000779209      3.96590     -17.6126 
0.00180905      5.03714     -12.3808 
0.000561452      1.86000      0.00000 
0.000120712      4.27855     -14.6209 
0.00222625     0.305941      101.310 
0.000614604      11.2929      2.74079 
0.000301457      3.44569     -7.00127 
0.000642302      11.3208     -4.86451 
0.00105597      10.6802     0.321883 
0.000112217      11.2959      3.04478 
0.00133814      5.40833     -3.17983 
0.000506107      2.79177      8.65254 
0.000886817      11.7784      8.79054 
0.000874047      10.4608      3.61733 
0.000108754      2.77042     -4.96974 
0.000381412      4.28696     -6.42875 
0.00147641      12.5926      7.66680 
0.000204224     0.349857     -120.964 
0.000786835      11.3858     -5.13976 
0.000103029      10.2002     0.337030 
0.000102018     0.364966     -80.5377 
0.000664026      3.37923     -16.5044 
0.000936263      1.86097     -1.84761 
0.00104563      11.3286     -17.5713 
0.000626705      10.1400      0.00000 
0.000546986     0.379473     -71.5651 
0.000864893      3.59450      14.5002 
0.000513239      3.90876     -17.8787 
0.000447746     0.637809     -138.814 
0.000614863      3.31958     -6.22583 
0.00180458      5.00919      6.18862 
0.00182021     0.984073      127.569 
0.000497881      11.3806     -4.83890 
0.00120255      1.86869      47.6026 
0.000676515      15.4303     -12.5771 
0.000600977      13.0822      1.05118 
0.000418425      2.99880      19.8852 
0.000425277      12.1735      5.37340 
8.98035e-05      11.3858     -17.4801 
0.000570055      17.0498     -7.07500 
0.000331479      11.8046     -17.1456 
0.000784545      22.2195     -15.9879 
0.000530302      11.3528      2.72631 
0.00202483      11.1713      6.47612 
0.000640482      2.46658     -18.4349 
0.00121592      11.7284      9.12501 
0.000369387      4.44000      0.00000 
0.00226650      5.38164     -22.2759 
0.000304678      1.81395      34.2157 
0.000429027      11.4455     -5.11285 
0.000588885      10.4010      3.63819 
0.000279880      3.25994     -6.34019 
0.00147865      4.31208     -21.2092 
0.000818106      15.3587     -12.4074 
0.000882521     0.684105     -142.125 
0.000326188      3.49445      15.9454 
7.80756e-05      13.2012     0.781258 
0.000434863      12.4944     -2.75249 
0.000357887      10.0864     -2.04541 
0.000755420      13.2612     0.777723 
0.000357651      5.09576     -12.2361 
7.53334e-05      2.75347      11.3099 
0.000523335      12.2332      5.34708 
7.50789e-05      2.71065     -5.07961 
0.000312972      11.8620     -17.0601 
0.000529876      16.9234     -6.92345 
0.000279982      13.7090     -6.53404 
0.000142561      15.5605     -12.6966 
0.000205904      19.0876     -15.8712 
0.000265839      3.07584      20.5560 
7.08196e-05      5.02462     -11.7125 
0.000329873      1.79800      64.2900 
0.000840937      9.46290      5.45755 
0.000259554      12.4819      8.01325 
0.000133328      15.6323     -12.8628 
-0.00259063      6.41579     -24.8874 
0.000198119      11.6692      9.17173 
0.000231775      3.85170     -18.1527 
0.000341538      1.80100     -1.90915 
0.000436722      22.2771     -15.9454 
0.000246429      10.6581     -4.84400 
0.00132322     0.960000      0.00000 
0.000567307      3.05941      41.8202 
0.000589775      13.7687     -6.50563 
0.00128361      12.6173     -2.99847 
0.000309360      1.82779      66.8014 
0.000300569      4.43878     -13.2849 
0.000191901      11.2161      10.1678 
0.000642132      13.2974     -8.82478 
0.000642678      5.28136      1.30195 
0.000637321      10.0887     -2.38594 
0.000237301      18.5985     -14.5742 
0.000616511      15.6908     -12.8140 
0.00113234      7.81130     -3.08218 
0.000160928      2.58627     -3.99091 
0.000731532      17.2904     -24.6085 
0.000378008      16.7375     -6.79383 
0.00116544      16.8627      1.01939 
0.000178811      5.41465     -12.8043 
6.06224e-05      11.4101      2.41103 
-0.000522962      20.4199     -26.3392 
0.000115448     0.364966      170.538 
0.000116395      19.2195     -15.9454 
6.04348e-05      10.3779      8.64542 
0.000176210      13.3212     0.774220 
0.000220227      11.1571      10.2222 
0.000211047      1.76465     -17.8189 
0.000977843      10.3186      8.69550 
0.000168109      11.5856      1.78064 
0.000715423      12.3716      8.36589 
5.78374e-05      17.7001     0.194222 
0.000309692      18.6565     -14.5278 
0.000404861      11.1026     -1.23863 
0.000704156     0.323110      111.801 
0.000320109      17.7601     0.193566 
0.000163257      13.5831     -6.34019 
0.000654254      2.40973     -18.8861 
0.000872302     0.732393     -145.008 
0.00120364      13.4405     0.511556 
5.60715e-05      5.47317     -12.6651 
0.000345410      11.1961     -17.4639 
5.54738e-05      10.4049      3.96792 
0.000408756      1.80499      68.5523 
0.000548376      11.2634      14.1843 
0.000303690      2.78338      7.43141 
0.000158686      20.0238     -13.8697 
0.000513876      22.4090     -16.0086 
0.000439487      16.1247     -4.26789 
0.000302009      17.3700     -3.36646 
0.000359306      5.54505     -13.1340 
0.000102355      19.4090     -15.9697 
0.000147817     0.782304      85.6013 
0.000430619      5.60350     -12.9946 
0.000101133      11.6456      1.77147 
0.000692634      8.29867     -7.89576 
5.11345e-05      18.0245     -15.8406 
9.89434e-05      5.86437     -7.05231 
0.000614616      14.3892     -20.2485 
8.11065e-05      12.6520      7.63055 
0.000391135      13.5119      17.3085 
0.000255819      10.5983     -4.87139 
0.000952060      11.9761     -28.7479 
0.000405966      13.2866     -3.62475 
-0.00517701      1.16499     -145.491 
0.000266305      1.03228      125.538 
0.000416180      17.9668     -15.8928 
0.000351095      15.3009     -7.20862 
0.000994955      13.4546      17.3845 
4.92203e-05      20.2712     -13.8717 
0.000186905      17.7004     0.388440 
4.87922e-05      15.2873     -12.2361 
-0.00190597      10.9498     -19.5271 
0.000261565      5.34135      1.28733 
4.82225e-05      2.52927      22.3062 
0.000640940      19.5409     -16.0421 
0.000376050      9.87087     -4.53226 
0.000932822      1.77279      66.0375 
0.000397741      6.84763     -8.05910 
0.000137559      19.6017     -13.9937 
0.000127674      12.9139     -6.13441 
9.21820e-05      7.75139     -3.10603 
0.000267394      12.7189     -13.6429 
0.000133080      4.10814     -6.70984 
0.000273742      11.7038      1.46880 
0.000134051      13.3465     -3.60847 
0.000123352      2.47386      22.8337 
0.000525360     0.789177      81.2538 
8.90561e-05      17.4299     -3.35488 
0.000902221      11.1389     -17.5565 
0.000166544      15.2414     -7.23692 
8.64165e-05      17.2954     -7.17432 
8.32761e-05      9.46879      5.81897 
0.000382676      1.74103     -1.97493 
-0.000385838      21.8868     -11.0635 
4.40143e-05      13.6427     -6.31236 
0.000276395      13.6771     -23.5286 
-0.000322669      20.6079     -26.2666 
0.000573667      9.12020    -0.376940 
8.47625e-05      19.5435     -14.0362 
0.000198472      16.6779     -6.81821 
0.000220115      10.3451      3.99091 
-0.00170165      8.16088    -0.842524 
0.000234823      17.7604     0.387128 
4.26417e-05      20.3295     -13.8312 
8.40214e-05      13.5898     -3.79725 
0.000845078     0.782304     -147.529 
0.000163740      17.8371     -2.50630 
0.000318082      21.0535     -20.3458 
0.000358111      17.8927     -15.7607 
0.000572500      13.3660     -9.03948 
0.000232432      8.23925     -7.95308 
4.14212e-05      13.7561     -23.6580 
0.000153356      2.98376      15.1541 
7.79433e-05      12.7851      1.61354 
4.07132e-05      13.8334     -3.97938 
0.000749453      1.82877      48.9909 
0.000673972      12.9080     -27.3988 
4.01778e-05      19.4708     -13.9078 
0.000406675      3.53644      14.7436 
7.61277e-05      11.0981      10.2771 
0.000450550      14.0770     -4.15521 
0.000397309      10.5385     -4.89909 
0.000551602      4.11558     -7.53945 
0.000207773      19.4853     -14.0790 
0.000114201      17.4815     -7.29576 
0.000185103      5.47185     -3.77228 
0.000177606      12.6606     -13.7070 
0.000592577      17.7771     -2.51475 
0.000241857      1.36953      28.8108 
0.000178453      24.3065     -19.0164 
3.88467e-05      4.25620     -21.5014 
0.000218405      16.0649     -4.28382 
7.66808e-05      8.46766      2.43665 
0.000942258      17.2154      4.59781 
0.000244212      16.8027      1.02303 
3.83458e-05      3.43680      16.2202 
0.000429958     0.729931     -99.4623 
0.000793099      10.8167     -17.4299 
0.000698746      4.33414     -21.9487 
7.00621e-05      11.7877      9.07876 
0.000235028      15.3001     -12.4557 
7.39274e-05      8.52760      2.41951 
0.000257195      1.06827      128.157 
0.00173682      5.32616     -22.5206 
7.25110e-05      19.4126     -13.9503 
-0.000231906      19.9904     -26.5651 
0.000631776      20.3736     -16.2467 
-0.000879947      24.8015     -21.7242 
0.000170498      8.52528      2.01662 
-0.000785756      20.6617     -26.1930 
0.000633741      14.1368     -4.13759 
0.000309430      10.2593      8.74616 
0.000201078      17.5410     -7.27087 
0.000521464      9.07509      9.89826 
0.000100848      10.0315     -2.74261 
-0.000272841      20.5654     -15.0499 
0.000233693      5.41631     -4.44738 
0.000167599      12.2619      8.72485 
0.000566952     0.840000      90.0000 
3.51639e-05      17.1840     -20.6497 
0.00121887     0.901998      3.81407 
0.000163405      5.02462      11.7125 
0.000531841      8.58524      2.00253 
0.000191488      1.70763     -18.4349 
-0.00143241      2.31603      53.4270 
0.000154899     0.782304      57.5288 
3.47431e-05      12.7251      1.62115 
0.000151659      2.52286     -2.72631 
0.000321422      13.6221     -23.6294 
-0.00141339      20.4339     -14.9748 
3.43899e-05      9.12414      9.46232 
-9.56827e-05      17.7853      5.61443 
0.000250303      17.8204     0.385824 
3.42731e-05      15.8796     -12.8810 
0.000202363      12.2026      8.76758 
0.000848360     0.833547     -149.744 
0.000833332      22.4218     -10.0169 
3.37800e-05      22.3513     -16.0510 
0.000156944      12.6070      1.90915 
0.000431698      9.18333      9.40078 
0.000150967      17.4245     -24.6236 
0.000507320      12.1936     -8.48894 
3.32142e-05      2.96864      14.0362 
0.000522299      13.2267     -3.64119 
-0.000495464      20.7959     -26.1954 
0.000311166      7.93453     -3.46823 
0.000105443      9.92615     -4.15964 
-0.000499101      21.8279     -11.0937 
0.000533047      1.74413      63.4349 
0.000150570      13.6663      16.8438 
-3.20627e-05      8.95951     -16.7360 
0.000586574      8.45510     -13.5432 
0.000440659      16.2644     -17.1649 
0.000244788      19.7305     -16.0651 
0.000196883      24.3633     -18.9704 
0.000197170      19.4271     -14.1221 
0.000814948      15.2141     -15.7902 
0.000297343      15.2340     -7.01306 
5.67182e-05      16.6184     -6.84277 
-0.000274315      8.90207     -16.8472 
3.12503e-05      10.0202     0.343084 
0.000153267      15.9381     -12.8329 
0.000120768      7.57926      4.08562 
3.10833e-05      17.2402     -20.5794 
0.000202465      20.5186     -13.8737 
5.41644e-05      16.1577     -8.97263 
0.000206033      5.47613     -4.39871 
0.000265529      1.31727      30.0686 
8.37363e-05      11.7638      1.46131 
3.06879e-05      2.89620      13.1726 
0.000321643      11.1956     -9.56328 
0.000516091      3.90000      30.5102 
-0.000415595      22.0188     -14.6800 
-0.000759001      20.6233     -15.0066 
