! Center RA: 12 29 06.69973,  Dec: +02 03 08.59828 (2000.0)
! Tentative model.
! Flux (Jy) Radius (mas)  Theta (deg)  Major FWHM (mas)  Axial ratio   Phi (deg) T \
! Freq (Hz)     SpecIndex
 0.0246949     0.624820     -129.806 
-0.00208402      23.5919     -122.397 
-0.00144444      23.7023     -122.456 
-0.00142643      23.2438     -121.775 
-0.00215297      23.7453     -122.619 
-0.00126560      23.2018     -121.608 
-0.000436521      23.1337     -121.711 
0.00122317     0.357771     -116.565 
-0.00119849      23.0917     -121.542 
-0.000774605      23.8127     -122.515 
-0.000387198      23.7213     -122.886 
0.00858477     0.252982     -108.435 
0.000376073     0.678822     -135.000 
-0.000372525      23.6542     -122.991 
-0.000369931      23.1600     -121.439 
-0.00167674      23.1647     -124.019 
0.00319998     0.791960     -135.000 
-0.000362549      23.6978     -123.154 
-0.000704633      23.8374     -122.250 
0.00140846      10.0080     -140.839 
-0.00101969      23.1183     -121.270 
-0.000691622      23.5871     -123.097 
-0.000342602      23.2757     -124.072 
0.000971931      10.1206     -140.774 
-0.000332970      23.7417     -123.315 
-0.000647053      23.9051     -122.148 
-0.00124801      23.6309     -123.260 
-0.000313278      23.0085     -121.203 
0.00111312      9.83349     -140.612 
0.00271367      10.2952     -140.993 
-0.000599178      23.8627     -121.985 
-0.000301973      23.0769     -121.100 
-0.000296775      23.0536     -123.966 
-0.00112232      23.5640     -123.366 
-0.00113834      19.6836     -122.721 
-0.000291547      22.9671     -121.032 
-0.000287465      23.9633     -123.425 
-0.000553482      23.1868     -121.167 
-0.000284409      22.9426     -123.912 
-0.000280850      22.7888     -121.067 
0.00220299      9.72091     -140.677 
-0.00127803      23.9729     -122.046 
-0.000476422      23.2095     -124.183 
0.00218539      25.4646     -129.391 
-0.000272642      22.6935     -121.449 
-0.000272120      19.7036     -123.238 
0.00432158     0.737564     -130.601 
0.00189423      24.7478     -130.280 
-0.000494047      19.7509     -122.596 
-0.000516625      24.0075     -123.584 
-0.000519883      19.6808     -123.561 
-0.000520035      22.8316     -123.857 
-0.000261392      22.8573     -120.964 
-0.000513724      23.6081     -123.529 
-0.00141186      19.7079     -122.400 
0.00186191      10.3457     -140.648 
-0.00150623      18.9490     -123.288 
-0.000257379      23.4318     -124.287 
-0.000492559      22.5835     -121.381 
-0.000480153      23.1455     -120.998 
-0.000712452      23.5859     -123.798 
-0.000246651      19.7252     -123.755 
-0.000689484      22.8163     -120.791 
-0.000483442      19.0160     -123.155 
-0.00154339      24.0518     -123.743 
-0.000907174      22.7206     -123.802 
-0.000237300      23.3207     -124.235 
-0.000237112      19.5259     -123.299 
-0.000234384      23.6524     -123.690 
0.000633154      24.7781     -129.498 
-0.000445228      19.3714     -123.034 
-0.000225056      19.0598     -123.357 
-0.00124132      17.0813     -121.010 
0.00269956      9.78292     -140.974 
-0.000223453      22.5420     -121.208 
-0.000222456      19.5699     -123.495 
-0.000221143      22.9260     -120.861 
-0.000423139      23.6305     -123.959 
-0.000790106      22.4736     -121.314 
-0.000404242      23.0984     -124.130 
-0.000989883      24.0832     -122.106 
0.000762846      25.0143     -129.289 
-0.000578872      23.2552     -121.065 
-0.000212745      19.7697     -123.947 
-0.000409508      22.5652     -123.577 
-0.000406875      23.6969     -123.851 
0.000942892      24.7164     -129.616 
-0.000596537      19.3521     -122.508 
0.000756558      25.1269     -129.315 
-0.000951385      18.9931     -123.489 
0.000583347      25.5772     -129.415 
-0.000393018      19.8145     -124.139 
0.000580387      10.4077     -140.928 
-0.000386425      19.7755     -122.276 
-0.000561077      22.7754     -120.619 
0.00485279      1.95305     -145.008 
-0.000559897      17.0402     -120.779 
-0.000193593      22.6096     -123.746 
-0.000192518      23.9853     -123.849 
-0.000376085      23.7415     -124.011 
-0.00117505      19.3092     -122.307 
0.000185520      24.6351     -130.258 
-0.000361674      22.4544     -123.520 
-0.000182544      22.7066     -120.721 
-0.000696450      19.8595     -124.330 
-0.00161358      24.0963     -123.901 
0.000635033      24.2968     -130.192 
-0.000526229      23.6753     -124.120 
-0.000520655      21.7266     -122.520 
0.000178613      10.4479     -139.970 
-0.000884573      23.1044     -120.828 
0.000347733      25.6391     -129.302 
-0.000175453      22.9873     -124.077 
-0.00238488      17.1525     -124.357 
-0.000948147      24.1258     -122.267 
0.00117641      10.4995     -139.635 
-0.000336920      22.3435     -123.462 
0.000169765      24.5223     -130.236 
-0.000619730      17.0683     -120.411 
-0.000913400      22.6659     -120.548 
-0.000332372      24.0300     -124.007 
-0.000167096      19.8184     -122.471 
0.000903543      24.2453     -130.048 
0.000478261      2.01911     -146.310 
0.000317661     0.160000     -90.0000 
-0.000163618      23.5430     -124.338 
-0.000316677      22.5006     -121.034 
0.000753993      25.5885     -129.163 
0.00152693     0.240000     -90.0000 
-0.000611912      21.7697     -122.697 
-0.000160930      17.0451     -122.347 
0.00126610      24.6654     -129.472 
-0.000160408      22.1887     -123.232 
-0.000160043      23.7864     -124.171 
-0.000313906      18.7946     -123.014 
0.00163132      1.84174     -124.380 
-0.000728521      19.9707     -124.390 
-0.000156040      23.7202     -124.280 
-0.000447803      22.2327     -123.404 
0.000685402      24.1326     -130.024 
-0.000883659      19.3769     -122.181 
-0.000552115      23.3658     -124.397 
-0.000153010      19.9047     -124.520 
-0.000554441      23.8314     -124.330 
-0.000411074      19.2148     -123.624 
-0.00197826      10.8641     -126.617 
0.00237862      10.1827     -141.059 
-0.000288574      21.6592     -122.634 
-0.000487889      11.1682     -131.225 
-0.000282920      18.6839     -122.942 
-0.00101819      23.7654     -124.439 
-0.000545597      22.4595     -120.859 
-0.000283169      18.7079     -122.603 
-0.000542658      11.9522     -132.016 
0.00185073      9.67041     -141.044 
-0.00297221      11.8988     -131.730 
-0.000139385      22.7652     -123.969 
-0.000522355      17.1374     -120.276 
-0.000524089      22.1218     -123.345 
-0.000136932      23.2141     -120.896 
0.000493576      10.6123     -139.586 
-0.000405194      22.7348     -120.445 
0.000263155      25.6506     -129.051 
-0.000261722      24.1686     -122.428 
-0.000370087      21.6161     -122.455 
-0.00165988      20.0160     -124.579 
-0.000248924      18.6649     -122.396 
-0.000975737      19.2666     -122.106 
-0.000130704      22.0111     -123.286 
-0.000381288      23.8766     -124.489 
0.000129892      23.9685     -129.855 
-0.000254095      21.6806     -124.628 
-0.000254860      18.6405     -122.735 
-0.000539400      19.3344     -121.980 
-0.000126857      22.6253     -120.373 
-0.000365723      16.7743     -123.917 
0.000475330      23.5691     -129.905 
0.000958251      1.90830     -123.024 
-0.000378893      11.2211     -131.532 
0.000682889      29.0870     -133.440 
-0.000863186      17.1978     -124.577 
0.000572450      25.6003     -128.911 
-0.000191458      22.5563     -120.476 
-0.000123276      24.1935     -122.166 
-0.000350704      21.9236     -124.444 
-0.000234999      24.1628     -123.795 
-0.000727565      17.0024     -122.120 
-0.000351873      1.84694     -162.350 
-0.000547728      21.5693     -124.574 
-0.000763285      22.4186     -120.683 
-0.000232503      18.6168     -123.075 
-0.000433430      22.1659     -123.518 
-0.000183891      23.8107     -124.598 
-0.000117729      21.6352     -124.454 
-0.000546242      16.3578     -118.320 
-0.000117114      22.0551     -123.460 
0.000446375      22.6828     -130.996 
-0.000598052      24.2362     -122.326 
0.00163440     0.178885     -116.565 
-0.00225636      1.79778     -159.146 
-0.000421213      23.0635     -120.657 
-0.000209507      22.2768     -123.576 
-0.000422360      17.3090     -124.645 
0.000323920      24.6037     -129.591 
-0.000712117      16.6188     -123.614 
-0.000320824      10.9120     -126.954 
-0.000565393      22.8443     -120.516 
-0.00127296      21.9447     -124.154 
0.000486983      22.7956     -131.016 
-0.000844908      18.6221     -122.188 
0.000107136      29.1452     -133.332 
0.000473524      24.9017     -129.264 
-0.000105995      17.0573     -119.812 
-0.000104977      18.5938     -123.417 
0.000566334      23.5078     -130.030 
-0.000104476      11.2686     -132.410 
0.000572700      29.2001     -133.446 
-0.000348357      21.8785     -124.271 
0.000802572      1.88807     -126.384 
0.000193634      24.0812     -129.879 
-0.000545211      21.5035     -124.695 
0.000291431      25.5501     -128.772 
0.000194595      10.4387     -139.351 
-0.000572925      11.1763     -130.646 
0.000455026      22.7353     -131.148 
-0.000759018      24.2074     -123.953 
-0.00146857      16.3200     -118.072 
0.000731397      27.9012     -133.257 
-0.000245389      21.5487     -122.569 
-0.000188338      22.4874     -120.579 
-0.000370151      20.9068     -125.028 
0.000179696      24.4911     -129.566 
-0.000366876      10.3175     -123.936 
-0.000273015      17.3547     -124.862 
0.000180354      24.1939     -129.903 
-0.000182558      11.3738     -133.575 
-0.000731895      22.3778     -120.507 
-0.000410848      23.6995     -124.548 
-0.000516373      11.1341     -129.753 
-0.000467142      22.2102     -123.690 
-0.000249033      23.8526     -124.063 
0.000536087      25.6125     -128.660 
-0.000489124      20.0615     -124.767 
-8.92274e-05      17.1665     -119.910 
-8.90419e-05      23.5882     -124.499 
-0.000170861      24.1411     -124.059 
-0.000758315      16.4639     -123.304 
8.82499e-05      24.3066     -129.926 
0.000930579      10.3781     -139.063 
-0.000652061      22.4468     -120.403 
-0.000170953      10.2731     -123.566 
-8.74005e-05      12.2376     -131.820 
-8.69691e-05      22.9539     -120.587 
-0.000353302      11.0089     -127.619 
-0.00108272      20.9528     -125.207 
-0.000530111      17.0413     -124.287 
-0.000167654      10.2065     -123.815 
-0.00132454      13.5540     -130.931 
-0.000164087      11.3228     -132.709 
8.52328e-05      29.1421     -133.554 
0.000204518      22.9085     -131.035 
0.000633082     0.688186     -125.538 
0.000650743      1.95305     -124.992 
-0.000631061      9.38765     -122.471 
-8.47137e-05      17.2757     -120.008 
-0.000207225      21.5733     -122.276 
-0.000530392      17.5120     -125.142 
0.000396044      12.7512     -119.299 
-0.000517620      16.9347     -122.264 
0.00202165      6.25843     -122.471 
-0.000606394      12.3506     -131.849 
0.000316170      29.2552     -133.560 
0.000570510      12.5365     -123.284 
0.00356276      17.0897     -133.483 
-0.000308357      13.5465     -131.409 
8.24323e-05      24.1426     -129.757 
0.000667730      10.2450     -141.340 
-8.14651e-05      17.3851     -120.105 
0.00187947      4.31259     -139.514 
0.000337677      10.8379     -139.490 
-0.000195545      18.6476     -121.849 
-0.000372002      23.9637     -124.114 
8.04658e-05      24.4295     -129.685 
-0.000137141      23.5223     -124.609 
0.000483557      23.4466     -130.156 
-7.97477e-05      22.3211     -123.747 
-0.000650056      10.1622     -123.440 
7.91607e-05      24.0300     -129.732 
0.00262154      14.0509     -120.069 
-0.000357943      22.9133     -120.415 
0.000369142      22.8482     -131.167 
-0.000422085      21.4378     -124.817 
-0.00102152      8.33115     -131.496 
-7.80269e-05      17.3451     -119.876 
-0.000144770      23.9189     -123.956 
7.72484e-05      23.9789     -129.585 
-0.000216397      22.1437     -123.805 
-0.000204052      22.8038     -120.343 
-0.000997360      2.34196     -172.147 
-0.000186974      10.9603     -127.288 
7.61098e-05      8.25978     -111.595 
0.000471230      25.5626     -128.520 
7.56316e-05      24.3168     -129.661 
-0.000145285      24.3038     -122.225 
-0.000770828      18.6899     -122.057 
-7.54453e-05      22.0109     -124.037 
7.53453e-05      10.7251     -139.538 
-7.47651e-05      23.7449     -124.707 
0.000854849      8.15608     -111.280 
-0.000342592      10.5615     -123.570 
-0.000147428      17.4543     -119.973 
0.000211184      23.9280     -129.438 
-0.00225560      1.72325     -158.199 
7.36369e-05      29.1079     -132.327 
0.000210857      14.7903     -121.283 
0.000546204      7.44860     -114.087 
0.00149238     0.226274     -135.000 
0.00110529      9.26136     -109.687 
0.000948538      12.7122     -118.985 
0.00141019      8.81344     -113.540 
7.19199e-05      24.3785     -129.541 
-0.000197881      24.2738     -123.847 
0.000203147      25.6750     -128.548 
7.09994e-05      29.3683     -133.565 
-0.000135309      1.84694      4.96974 
0.000820516      2.18358     -118.443 
0.00183285      1.93659     -128.290 
-0.000262282      17.4145     -119.745 
-0.000733663      22.3373     -120.330 
-0.000261151      20.1072     -124.955 
0.000135337      29.1671     -132.221 
0.000137284      23.9899     -129.316 
-0.000257116      12.2974     -131.572 
-0.000166922      23.4110     -124.559 
0.000903409      12.6915     -123.690 
-0.000327493      27.7447     -127.266 
0.000482210      9.15921     -109.385 
-0.000135039      11.8457     -131.441 
6.80035e-05      29.0290     -133.548 
-0.000258650      8.39123     -131.135 
-0.000324226      30.0240     -124.579 
0.000502793      17.6787     -131.698 
0.000259917      22.7881     -131.299 
0.000801159      2.14663     -116.565 
-0.000254567      17.6234     -125.205 
0.000183504      24.3276     -129.395 
-0.000473478      16.9964     -124.064 
0.000190655      7.73315     -114.444 
0.000543691      11.2345     -104.432 
0.000190582      10.3076     -141.618 
-6.48237e-05      16.9392     -119.107 
-0.000568942      22.8729     -120.242 
-0.000121602      19.4872     -122.255 
-0.000124669      23.8975     -124.222 
0.000165342      23.8773     -129.289 
0.000178673      29.1134     -132.104 
-0.000239386      22.2547     -123.861 
0.000177783      14.7489     -121.017 
0.00122236      2.25424     -117.474 
-0.000280406      16.9101     -122.638 
-0.000450294      10.1183     -123.062 
-0.000499478      11.7328     -131.406 
-6.24330e-05      19.1988     -122.233 
0.000176929      29.0842     -133.663 
-0.000121617      23.3108     -120.525 
0.00128943      2.72118     -114.305 
-0.000118154      21.9897     -124.326 
0.000111060      24.8512     -129.121 
-0.000619791      16.9534     -122.865 
0.000473391      7.65078     -111.468 
6.09414e-05      7.62060     -116.834 
-0.00130190      27.6963     -127.135 
-0.00103098      30.4692     -124.733 
-0.000387087      7.47048     -133.264 
-0.000385279      29.9127     -124.540 
0.000231582      10.3704     -141.892 
0.000176061      23.9393     -129.168 
0.000118857      7.65705     -117.368 
-0.000112596      24.2521     -124.109 
0.000225552      22.6151     -131.415 
0.000402772      9.60833     -140.744 
-0.000165045      17.5581     -125.356 
-0.000272015      19.5300     -122.453 
-0.000214507      10.5845     -122.969 
-0.000346633      21.4835     -124.992 
-0.000163902      17.0481     -119.211 
-0.000171682      16.4201     -123.071 
-0.000276704      22.1883     -123.977 
0.000193469      14.6391     -120.910 
5.83531e-05      7.38474     -112.954 
5.81766e-05      10.0702     -141.127 
5.79171e-05      29.2264     -132.115 
0.000333582      7.69415     -117.897 
0.000688850      10.8900     -139.170 
0.00172603      17.6191     -131.871 
-0.000166898      23.2702     -120.356 
-0.000265279      7.35739     -133.238 
-0.000163124      17.6697     -125.417 
-0.000264153      21.0643     -125.259 
-0.00131127      2.42124     -172.405 
-0.000155397      17.3749     -119.516 
-0.000848504      8.27836     -131.082 
-0.000153733      1.76726      5.19443 
-5.65563e-05      20.2646     -125.196 
-0.000308772      11.1243     -130.333 
5.64150e-05      22.9611     -131.186 
-5.60069e-05      17.9314     -124.824 
0.00199691      7.35391     -112.380 
0.000214461      10.4335     -142.164 
-0.000105448      24.3184     -124.004 
-5.54694e-05      20.9990     -125.385 
0.000342026      19.5658     -129.026 
-0.000150153      21.5307     -122.096 
0.000246037      11.2547     -104.826 
0.00147409      19.6281     -128.879 
-0.00127256      20.4877     -125.304 
0.000107458      23.8888     -129.019 
0.00157402      6.19109     -122.869 
-0.000304962      16.3094     -122.989 
0.000153603      23.0214     -131.055 
0.000106713      25.6252     -128.408 
-0.000199597      18.0428     -124.888 
-0.00133524      13.8307     -128.660 
0.000152039      27.8464     -133.137 
-5.39092e-05      19.1312     -122.361 
0.000779299      1.88807     -143.616 
-0.000412155      16.9005     -118.870 
-0.000215020      21.5057     -122.389 
0.000448159      7.73191     -118.421 
-0.000103544      23.3393     -120.256 
9.87327e-05      29.4814     -133.571 
0.000102718      22.5022     -131.397 
0.000457174      14.5982     -120.641 
5.15683e-05      28.9710     -133.657 
5.12053e-05      24.2769     -129.250 
-0.00106006      9.43084     -122.881 
0.000452294      2.61565     -113.429 
-0.000100074      24.0087     -124.273 
5.07922e-05      29.1728     -131.999 
0.000246492      10.4968     -142.431 
-0.000141391      21.8336     -124.098 
0.000318677      25.5129     -128.379 
-9.87933e-05      22.2993     -124.032 
-0.000154600      16.2118     -117.956 
-5.02231e-05      12.3573     -131.325 
0.000188907      10.4910     -139.020 
-5.01299e-05      19.9303     -125.030 
-0.000504939      23.2991     -120.087 
0.000368808      22.5552     -131.549 
-0.00102009      6.62456     -132.553 
-0.000233718      16.9302     -124.216 
0.000190302      14.9551     -120.543 
-0.000314696      22.2331     -124.148 
-0.000321373      17.6045     -125.568 
-0.000452211      32.0615     -129.330 
0.000436190      1.98716     -130.101 
4.87289e-05      29.0598     -131.987 
-0.000258021      10.0077     -122.928 
-9.47927e-05      21.5491     -124.870 
0.000139059      24.2264     -129.103 
-0.000337099      12.4103     -131.603 
-0.000215352      23.4565     -124.720 
-0.000581212      31.7781     -127.533 
0.000747552      9.54652     -140.440 
-0.000526418      9.08273     -148.690 
0.000248210      29.0263     -133.772 
-0.00104974      6.73760     -132.594 
-4.78991e-05      29.8674     -124.414 
0.000136826      23.8385     -128.870 
-0.000140043      24.2310     -124.372 
-9.31951e-05      22.8327     -120.069 
0.000758357      16.2921     -134.602 
0.000315947      10.5603     -142.696 
-0.000555397      16.2660     -122.752 
4.70326e-05      12.6736     -118.668 
-0.000128668      6.51153     -132.510 
-0.000320833      19.8189     -124.973 
-9.00593e-05      31.8903     -127.560 
-4.66535e-05      18.9782     -122.082 
0.000173770      24.8630     -128.861 
0.00114467      7.77030     -118.940 
-0.000114486      21.1106     -125.437 
-0.000174899      29.7111     -124.246 
-0.000319591      23.9879     -124.538 
8.67947e-05      23.8267     -129.141 
-0.000382508      9.76918     -148.392 
0.000203982     0.329848     -165.964 
-0.000342729      19.5976     -122.328 
0.000168973      29.1193     -131.882 
-0.00224378      15.9587     -136.625 
-0.000116378      22.2970     -120.153 
-0.000278311      10.7290     -120.964 
0.000712777      4.40581     -119.358 
-0.000205465      18.0887     -125.096 
0.000404120      15.0240     -120.388 
-0.000126279      7.30282     -132.780 
0.000755437      3.79389     -114.944 
-8.76051e-05      9.29447     -131.511 
-0.000376916      16.9753     -124.439 
-0.000276098      24.2763     -124.528 
0.000194495      14.4481     -120.256 
