! Center RA: 18 06 50.68064,  Dec: +69 49 28.10848 (2000.0)
! Established model.
! Flux (Jy) Radius (mas)  Theta (deg)  Major FWHM (mas)  Axial ratio   Phi (deg) T \
! Freq (Hz)     SpecIndex
  0.344373    0.0600000      90.0000 
 0.0475207     0.189737     -108.435 
 0.0601815     0.134164      63.4349 
  0.128483     0.247386     -104.036 
  0.139549     0.189737      71.5651 
 0.0965790     0.305941     -101.310 
 0.0139319     0.670820     -100.305 
 0.0490572     0.180000      90.0000 
 0.0688114     0.729931     -99.4623 
 0.0353966     0.240000     -90.0000 
 0.0100894     0.789177     -98.7462 
 0.0337602     0.247386      75.9638 
0.00930840     0.917823     -101.310 
 0.0110078     0.611882     -101.310 
 0.0236175     0.976729     -100.620 
 0.0195000     0.553173     -102.529 
 0.0420512     0.240000      90.0000 
 0.0163744     0.180000     -90.0000 
 0.0219085      1.03576     -100.008 
0.00982459     0.602993     -95.7106 
 0.0121695      1.02703     -96.7098 
 0.0107647      1.08665     -96.3402 
0.00474623     0.569210     -108.435 
0.00293053      1.09490     -99.4623 
 0.0386304     0.305941      78.6901 
0.00155729     0.600000     -90.0000 
0.00426015     0.660000     -90.0000 
0.00543015     0.536656     -116.565 
0.00138946      1.14630     -96.0090 
0.00135834      1.20599     -95.7106 
0.00248545     0.602993     -84.2894 
0.00130718      1.26570     -95.4403 
0.00129248     0.247386     -75.9638 
0.00598291      1.32544     -95.1944 
0.00467951     0.662722     -84.8056 
0.00357827     0.169706     -135.000 
0.00122351     0.189737     -71.5651 
0.00769233     0.300000      90.0000 
 0.0118267     0.617738     -119.055 
0.00118281     0.967471     -97.1250 
0.00533713     0.268328     -63.4349 
 0.0126692      1.39169     -97.4314 
 0.0109168     0.216333     -146.310 
 0.0127851      2.47823     -96.9530 
0.00201321     0.961873     -93.5763 
 0.0139523     0.611882     -78.6901 
0.00455220     0.989545     -104.036 
0.00884841     0.566039     -122.005 
0.00184688     0.216333     -56.3099 
0.00640980     0.960000     -90.0000 
0.00695671     0.254558     -45.0000 
0.00247424      2.56320     -106.314 
0.000794710      2.91046     -104.323 
0.00875952      2.41197     -95.7106 
0.00635251      1.00578     -107.354 
0.00279848      1.38521     -94.9697 
0.00282879      2.92588     -105.461 
0.00553482      2.50567     -106.699 
0.000738565      2.98376     -105.154 
0.000731108      2.75347     -101.310 
0.000712510      3.04171     -104.859 
0.00137804      3.15785     -104.300 
0.00481845      2.74233     -100.081 
0.00272489      1.02000     -90.0000 
0.00119760      3.21602     -104.036 
0.00126217      3.26049     -102.758 
0.00696691      1.45121     -97.1250 
0.00458626     0.300000     -53.1301 
0.00839069     0.268328     -153.435 
0.00176914      3.30654     -101.514 
0.00451440      2.94245     -106.587 
0.00594363     0.961873     -86.4237 
0.000594201      2.52357     -108.004 
0.000569987      2.44826     -107.103 
0.00306958      3.35410     -100.305 
0.00300517      2.46658     -108.435 
0.00166233      2.05056     -110.556 
0.000646285      3.17320     -105.350 
0.00663122      1.97363     -109.537 
0.000919105      1.02528     -110.556 
0.00634039      2.73247     -98.8418 
0.000784809      3.41315     -100.125 
0.000482304      3.53135     -99.7824 
0.00255378      3.23110     -105.068 
0.000475945      1.08167     -109.440 
0.00220620      3.59049     -99.6197 
0.00250896      2.35228     -95.8560 
0.000865344      1.32816     -108.435 
0.00143993     0.969330     -111.801 
0.00375411      2.88500     -106.928 
0.00302629      2.39098     -107.526 
0.00107136      3.29509     -100.491 
0.00392165      3.66000     -100.389 
0.00370598     0.600000     -126.870 
0.00122485      1.40456     -109.983 
0.00791694     0.300000     -36.8699 
0.00182627      3.28469     -99.4623 
0.00147923     0.913893     -113.199 
0.00207547     0.901998     -86.1859 
0.000429751      1.51076     -96.8428 
0.00272802      3.24721     -106.091 
0.00165357      2.34691     -94.3987 
0.000989237      1.08000     -90.0000 
0.000688605      1.57835     -98.7462 
0.00845877     0.364966      80.5377 
0.00282295      1.34833     -110.854 
0.000634163      3.68402     -106.074 
0.000583531     0.782304     -85.6013 
0.000325246      1.26143     -92.7263 
0.00202730      1.63768     -98.4270 
0.000606743      3.27536     -98.4270 
0.00212162      3.74171     -105.819 
0.00120902     0.553173     -130.601 
0.00158358      2.33384     -107.969 
0.000309542      3.32662     -97.2532 
0.000998527      2.96014     -107.700 
0.000302778      3.31958     -96.2258 
0.00281400     0.859069     -114.775 
0.00105557      2.40973     -108.886 
0.00201457     0.349857     -149.036 
0.00111007      2.28709     -94.5140 
0.00146203      3.37337     -95.1022 
0.00101740     0.247386     -165.964 
0.00265307      3.71903     -100.222 
0.00115494     0.842140     -85.9144 
0.00257417      3.75851     -106.699 
0.000769382      1.20000     -90.0000 
0.000496398      2.34307     -92.9357 
0.00249657      1.69706     -98.1301 
0.000893694      3.31361     -95.1944 
0.00147122      3.32175     -106.798 
0.000987605      3.22552     -99.6375 
0.00139675      1.91719     -110.136 
0.00207928      2.40000     -90.0000 
0.000235078      3.36856     -94.0856 
0.000453640      2.11367     -96.5198 
0.000793693      2.90303     -108.060 
0.00266539      1.42618     -112.249 
0.000448707      3.42841     -94.0142 
0.00165681      1.26000     -90.0000 
0.000969510     0.670820     -79.6952 
0.00143518      2.82765     -107.281 
0.00153068      3.26435     -107.103 
0.00191660      2.05407     -96.7098 
0.00201146     0.323110     -158.199 
0.000206498      3.48827     -93.9452 
0.00164310      2.35304     -109.359 
0.000937130      3.77809     -100.061 
0.000390247      3.30872     -94.1596 
0.000381021      3.55269     -94.8440 
0.000536876      3.21602     -98.5836 
0.000358951      2.34000     -90.0000 
0.000372350      4.02492     -100.305 
0.000391959     0.804984     -116.565 
0.000838203      3.39676     -107.475 
0.000824786      1.75647     -97.8533 
0.000516073     0.240000      180.000 
0.000483105      2.72389     -97.5946 
0.00135712      3.61248     -94.7636 
0.000176790      4.09497     -100.981 
0.000495957      3.24888     -94.2364 
0.000700850     0.512640     -69.4440 
0.000340474      4.08397     -100.154 
0.000868787      1.48189     -111.371 
0.000676593      2.66443     -97.7652 
0.00127737      4.15389     -100.823 
0.000826502      3.81602     -106.440 
0.00101195     0.339411     -45.0000 
0.00234993     0.305941     -168.690 
0.000817878      3.78904     -100.954 
0.00176727      2.34077     -88.5312 
0.000707175      3.18904     -94.3160 
0.000255913     0.699714     -120.964 
0.000227998     0.848528     -81.8699 
0.00213971      2.29652     -109.855 
0.00112416      2.04793     -95.0425 
0.000389334      1.86097     -110.772 
0.000262843      1.04785     -113.629 
0.000140085      1.20150     -87.1376 
0.000614526     0.648999     -123.690 
0.00105197      3.67227     -94.6859 
0.000810997      2.77042     -107.650 
0.000136653      2.10770     -94.8991 
0.000250557     0.907965     -82.4054 
0.000661309     0.993177     -115.017 
0.000133477      1.32000     -90.0000 
0.000775144      1.72754     -110.323 
0.000347211     0.729931     -80.5377 
0.000230040      1.02703     -83.2902 
0.000127118     0.751798     -118.610 
0.000530006      3.73015     -101.129 
0.000124727      1.29244     -111.801 
0.000336067      1.08665     -83.6598 
0.000233043      1.26143     -87.2737 
0.000421549      3.45404     -107.176 
0.000407946      1.99449     -96.9112 
0.000347137      4.21284     -100.670 
0.000435247      3.12922     -94.3987 
0.000416427      1.14630     -83.9910 
0.000116061      2.10685     -109.983 
0.000115652      4.00565     -106.535 
0.000334782      3.73208     -94.6106 
0.000467679      1.67141     -111.038 
0.000361337     0.789177     -81.2538 
0.000240009      3.56887     -106.607 
0.000614987      4.06320     -106.294 
0.000686828      2.65699     -96.4831 
0.000213022      4.27181     -100.521 
0.000551108     0.939149     -116.565 
0.000230771      3.62640     -106.336 
0.000545449      3.91658     -95.2739 
0.000279343      1.20599     -84.2894 
0.000931590     0.569210     -71.5651 
0.000299268      3.12519     -93.3019 
0.000552351      3.85684     -95.3558 
0.000388227      4.33082     -100.376 
0.000740627      1.37084     -113.199 
0.000193462      1.81593     -97.5946 
0.000834667     0.300000      180.000 
0.000763949      2.59738     -96.6325 
0.000421662      1.26570     -84.5597 
0.00142581     0.305941     -11.3099 
0.000186457      1.21342     -81.4692 
0.000652662      4.12083     -106.060 
0.000170208      1.87542     -97.3524 
0.000760290      4.19528     -106.621 
9.28182e-05      3.67129     -101.310 
0.000571586      3.06529     -93.3665 
0.000744850     0.901998      86.1859 
0.000165853      3.14986     -107.745 
0.000418313      1.93494     -97.1250 
0.000790416      4.38985     -100.235 
0.000414481      3.58647     -107.526 
0.000493466      3.97633     -95.1944 
0.000146559      1.80499     -111.448 
0.000403588      1.27279     -81.8699 
0.000193618      3.09277     -108.083 
0.000233567      2.60500     -97.9435 
8.09219e-05      3.48310     -100.923 
0.000472407      1.33222     -82.2348 
0.000176941      2.28079     -88.4926 
7.95839e-05      1.62997     -96.3402 
7.68552e-05      6.29628     -97.6668 
0.000150762      1.28265     -79.2157 
0.000378865      6.35575     -97.5946 
0.000493806      6.91563     -98.4816 
0.000292987      3.83719     -99.9042 
0.000274568      3.01496     -95.7106 
0.000141671      1.65952     -102.529 
0.000275921      3.90692     -100.620 
0.000271012      3.13209     -106.699 
0.000271324      1.55769     -105.642 
0.000134674      4.40091     -101.004 
0.000131358      4.29409     -105.396 
0.000310358      3.61796     -95.7106 
0.000356422      1.64754     -100.491 
0.000126582      3.80326     -96.3402 
0.000353041      2.27684     -108.435 
0.000473303      4.23627     -105.611 
0.000245316      1.51789     -108.435 
0.000124775      3.42053     -105.255 
0.000123955      3.07467     -95.5993 
0.000360181      4.44891     -100.098 
0.000236229      2.10343     -93.2705 
0.000120916     0.268328      63.4349 
0.000120477      3.01735     -107.354 
0.000119159      3.86290     -96.2419 
0.000566760      6.24519     -98.2858 
0.000117677     0.835703     -111.038 
0.000117564      3.53644     -104.744 
0.000116855      3.00958     -94.5739 
0.000200889      2.58070     -107.592 
0.000324537      4.50799     -99.9638 
0.000111844      3.92255     -96.1466 
0.000111613     0.402492     -63.4349 
0.000109205      3.06940     -94.4846 
0.000304075      2.22000     -90.0000 
0.000107426      4.17852     -105.832 
0.000106995      6.05851     -97.9696 
0.000495036      3.98221     -96.0542 
0.000105968      3.49445     -105.945 
0.000200727      1.53792     -110.556 
0.000105202      4.88365     -100.620 
0.000206025      6.79697     -98.6308 
0.000104441      1.98816     -95.1944 
0.000299367      6.30457     -98.2072 
0.000296913      4.36807     -105.945 
0.000103321      3.03579     -108.435 
0.000102711     0.780000     -112.620 
0.000654971      6.91251     -103.554 
0.000685447      5.93151     -97.5563 
0.000551423      2.22000     -108.925 
0.000101920      3.49857     -95.9061 
0.000370093      4.95391     -101.174 
0.000171518      2.71330     -108.034 
0.000261051      2.94550     -93.5035 
0.000193877     0.323110      68.1986 
0.000138829      3.80089     -101.842 
0.000455900      6.85630     -98.5556 
0.000170205      4.56710     -99.8336 
0.000919628      3.05941     -115.560 
9.54545e-05      3.43680     -106.220 
0.000213624      4.04188     -95.9645 
0.000182585      5.53173     -102.529 
9.20674e-05      4.35362     -97.1250 
9.08184e-05      2.52000     -90.0000 
9.03600e-05      4.31041     -106.164 
0.000411604      1.56000     -112.620 
0.000175224      6.36396     -98.1301 
0.000381083      1.92842     -95.3558 
8.78673e-05      4.63672     -100.437 
0.000234511      5.09576     -102.236 
0.000160139      5.47317     -102.665 
0.000212318      4.41316     -97.0284 
8.37204e-05      2.58000     -90.0000 
0.000241917      7.26297     -102.888 
8.33208e-05      4.44243     -106.477 
8.26975e-05      3.75516     -102.926 
0.000149539      3.25386     -95.2901 
8.14310e-05      6.92682     -104.036 
8.12026e-05      5.62626     -97.3524 
0.000235753     0.782304      85.6013 
8.04966e-05      2.76261     -92.4896 
8.03206e-05     0.323110     -21.8014 
0.000151897      5.77903     -102.593 
0.000409695      4.50000     -106.260 
0.000480234      2.22081     -88.4518 
0.000297715      7.23044     -99.0715 
0.000470615      4.34658     -96.3402 
0.000290674      3.73738     -95.5275 
0.000344625      6.42336     -98.0544 
0.000529202      6.86862     -104.158 
0.000616681      5.56676     -97.4314 
0.000930173     0.379473      71.5651 
0.000634470      7.32147     -102.783 
0.000642269     0.842140      85.9144 
0.000261554      5.03714     -102.381 
7.25199e-05      2.46073     -88.6028 
6.99536e-05      2.82255     -92.4366 
0.000406642      2.16083     -88.4089 
8.69868e-05      3.79710     -95.4403 
6.80806e-05      5.83760     -102.465 
0.000135360      2.76065     -91.2454 
0.000236385      7.28969     -98.9971 
0.000346743      5.41465     -102.804 
0.000240708     0.626418     -73.3008 
0.000142219      3.51141     -106.887 
0.000173540      1.50479     -113.499 
6.35468e-05      2.64000     -90.0000 
0.000228350      5.99099     -97.4809 
0.000115296      5.79241     -103.173 
0.000190968      2.61396     -99.2461 
6.07223e-05      6.78822     -98.1301 
6.03945e-05      7.34896     -98.9240 
0.000114839      7.71391     -98.9495 
0.000113825      3.08577     -116.565 
0.000193615      5.85085     -103.039 
5.67898e-05      2.88250     -92.3859 
0.000109849     0.247386      165.964 
0.000155882     0.536656     -63.4349 
0.000103816      5.10882     -102.894 
7.87123e-05      4.68961     -106.348 
0.000107338      7.70480     -98.5087 
0.000154938      2.70000     -90.0000 
0.000497016      3.03223     -117.072 
0.000254607     0.848528      81.8699 
0.000441649      6.84763     -98.0591 
0.000102006      4.25281     -106.390 
0.000196985      6.88355     -104.642 
8.58951e-05      1.86869     -95.5275 
0.000194340      4.86259     -105.751 
0.000413563      4.47272     -96.9343 
5.14099e-05     0.967471     -82.8750 
0.000394914      7.38000     -102.680 
0.000603744      7.76415     -98.4432 
4.84937e-05      7.16190     -98.6732 
0.000252698      5.92392     -96.9811 
0.000246083     0.268328      153.435 
4.70876e-05      2.94245     -92.3373 
0.000845447     0.907965      82.4054 
7.78171e-05      1.31590     -114.228 
0.000501015     0.590931     -66.0375 
0.000267960      5.50727     -97.5121 
0.000299556      2.64068     -88.6980 
0.000165266      4.40622     -96.2540 
0.000187439      1.44997     -114.444 
0.000342325      7.22122     -98.6014 
0.000289332     0.305941      168.690 
4.43859e-05      1.39169     -82.5686 
0.000223028      6.82551     -104.769 
6.69313e-05      4.38493     -106.699 
0.000192855      4.92037     -105.562 
0.000124524      1.03576     -79.9920 
9.88122e-05      5.86805     -106.026 
5.17305e-05      2.82064     -91.2189 
0.000106167      1.40071     -80.1342 
0.000114556      8.18049     -102.711 
3.91330e-05      1.34164     -79.6952 
6.84481e-05      1.80898     -95.7106 
0.000148901      5.35616     -102.947 
3.77823e-05      1.63878     -113.749 
7.20408e-05      2.97893     -117.597 
7.11384e-05      1.09490     -80.5377 
0.000147555      5.94242     -106.422 
5.25884e-05      4.63206     -106.557 
0.000132580      8.23903     -102.619 
3.59320e-05      1.12730     -115.201 
0.000111925      6.24836     -101.634 
0.000156902      4.32749     -106.928 
0.000246365      7.81614     -102.863 
0.000159557     0.379473     -18.4349 
0.000400012      6.84105     -105.255 
0.000114249      6.41523     -97.5238 
0.000181119      7.39340     -103.134 
3.43119e-05      1.68962     -96.1155 
0.000167802      5.98348     -96.9112 
9.26841e-05      1.58405     -114.624 
6.38314e-05      2.92588     -118.142 
3.32449e-05      3.43313     -95.0131 
0.000119291      1.45986     -80.5377 
3.30684e-05      4.51438     -113.499 
0.000154675      8.25234     -103.026 
0.000319544      7.82350     -98.3787 
3.25208e-05      3.13955     -116.075 
0.000631810      13.4063     -102.668 
3.21612e-05     0.509117     -135.000 
3.20608e-05      1.99449     -111.161 
8.86180e-05      4.93680     -106.232 
0.000346127      13.0106     -99.2886 
0.000166513      4.56946     -113.199 
0.000238196      5.76500     -92.3859 
0.000656561      1.34833      32.2756 
0.000173488      6.01708     -106.809 
5.96686e-05      8.22525     -105.658 
2.93390e-05      5.44779     -97.5946 
8.07800e-05      3.19356     -115.602 
0.000231967     0.553173     -139.399 
7.61994e-05      5.95966     -106.975 
0.000829773      12.0987     -105.828 
2.83922e-05      3.67766     -95.6176 
8.26301e-05      8.28304     -105.546 
5.18249e-05      2.87312     -118.706 
8.33883e-05      7.88812     -103.191 
0.000166405      2.76000     -90.0000 
2.78948e-05      4.74721     -106.144 
2.77697e-05      3.30164     -109.093 
0.000122120      5.44018     -96.9683 
0.000156188      1.88308     -112.479 
0.000185291      1.52971     -115.560 
0.000195787     0.566039     -57.9946 
0.000117147      2.70067     -88.7270 
0.000244209      2.10086     -88.3634 
0.000737603      1.19549     -17.5256 
2.60998e-05      8.31081     -102.933 
0.000221721      12.9514     -99.3314 
0.000285769      8.24165     -106.060 
2.53407e-05      4.87922     -106.429 
2.53047e-05      3.21994     -116.565 
0.000149874      6.86627     -95.0131 
8.15474e-05     0.402492      63.4349 
0.000226126      8.29759     -102.529 
2.49448e-05      12.7772     -103.579 
0.000109736      6.32168     -106.543 
9.29391e-05      4.10156     -95.8774 
2.42084e-05      1.41223     -77.7352 
6.91117e-05      12.6465     -103.443 
3.69211e-05      1.93866     -111.801 
0.000442814      15.9949     -96.2453 
0.000147655      4.64835     -113.587 
0.000673790      11.4033     -96.0406 
4.60083e-05      5.20100     -106.763 
0.000460627     0.967471      82.8750 
0.000173408      1.51908     -80.9097 
8.34662e-05      3.27371     -116.095 
0.000540166      14.5949     -97.7970 
4.23832e-05      4.82170     -106.631 
0.000141506      6.03470     -107.354 
7.97260e-05      12.0410     -105.906 
6.15295e-05      13.0204     -99.5491 
9.69126e-05      5.82495     -92.3614 
0.000105408      5.21862     -107.393 
0.000177133     0.436807      74.0546 
2.11726e-05      12.8355     -103.517 
2.11812e-05      3.35839     -108.759 
0.000172893      8.29933     -105.945 
3.93853e-05      2.82064     -119.291 
5.91914e-05      6.33902     -107.063 
3.46875e-05      6.47472     -97.4543 
7.59465e-05      12.5881     -103.506 
3.76652e-05      1.10635     -77.4712 
0.000106690      5.97655     -96.3402 
0.000281534      7.81499     -97.9435 
5.58554e-05      7.28055     -98.5308 
1.97002e-05      4.16125     -95.7928 
5.72314e-05      16.2178     -100.229 
0.000154146      8.71674     -103.941 
8.61617e-05      15.5196     -98.2241 
0.000108078      4.26127     -122.347 
1.90883e-05      12.8939     -103.454 
3.63288e-05      4.76424     -106.837 
-0.000269660      21.3112     -107.364 
3.46819e-05      5.38063     -97.0458 
7.01209e-05      8.77499     -103.846 
8.28254e-05      13.0796     -99.5055 
0.000200584      4.73506      81.2538 
0.000261605      15.8528     -100.247 
4.98098e-05      6.54220     -97.9072 
1.80877e-05     0.976729     -79.3803 
0.000131201      5.13692     -112.671 
9.89990e-05      3.32770     -115.641 
3.43023e-05      3.64373     -107.241 
