! Center RA: 12 29 06.69973,  Dec: +02 03 08.59828 (2000.0)
! Established model.
! Flux (Jy) Radius (mas)  Theta (deg)  Major FWHM (mas)  Axial ratio   Phi (deg) T \
! Freq (Hz)     SpecIndex
   1.39067      0.00000      0.00000 
  0.355136     0.113137      45.0000 
  0.183122     0.178885      26.5651 
  0.642176     0.288444      33.6901 
  0.835033     0.113137     -135.000 
  0.107969     0.178885     -153.435 
  0.549860     0.288444     -146.310 
  0.439493     0.400000      36.8699 
  0.173412     0.512250     -141.340 
  0.121853     0.624820     -140.194 
 0.0305647     0.339411      45.0000 
  0.398661     0.452548      45.0000 
  0.283083     0.565685     -135.000 
  0.226737     0.678822     -135.000 
  0.150866     0.400000      53.1301 
  0.191797     0.624820     -129.806 
  0.137250     0.512250      51.3402 
 0.0414932     0.512250     -128.660 
  0.202502    0.0800000      90.0000 
  0.104810     0.400000     -126.870 
 0.0710405      1.58795     -139.086 
  0.132838     0.288444     -123.690 
 0.0593869     0.791960     -135.000 
  0.210307     0.178885      63.4349 
  0.124380     0.905097     -135.000 
 0.0906182     0.624820      50.1944 
  0.179727      1.64924     -140.906 
 0.0462393      1.01823     -135.000 
  0.168540     0.678822      45.0000 
 0.0591865      1.18929     -137.726 
 0.0786832     0.178885     -116.565 
 0.0252152      1.07629     -138.013 
0.00878118     0.565685      45.0000 
 0.0461355      1.76182     -140.528 
0.00781753    0.0800000     -90.0000 
 0.0306858      1.36235     -139.764 
 0.0373232      1.82428     -142.125 
 0.0248726      1.24964     -140.194 
  0.155076     0.288444      56.3099 
  0.122473     0.160000     -90.0000 
  0.108574      1.93659     -141.710 
 0.0843124     0.252982      71.5651 
  0.119602     0.791960      45.0000 
 0.0532006      1.42436     -141.843 
 0.0132025      1.98716     -139.899 
0.00718298      1.98071     -133.363 
 0.0203192      1.48809     -143.746 
 0.0389513     0.178885     -63.4349 
 0.0375220      2.03961     -131.820 
 0.0148005      9.82308     -139.955 
 0.0334923      9.77180     -140.315 
 0.0160119      1.88807     -143.616 
 0.0114674      1.55332     -145.491 
0.00493046     0.252982     -108.435 
0.00570974      1.37637     -144.462 
 0.0194805      3.22887     -138.013 
0.00574736      1.87446     -140.194 
 0.0184240     0.226274     -45.0000 
0.00256205      1.44222     -146.310 
 0.0252705      2.09380     -133.452 
0.00716854      1.50944     -147.995 
 0.0113206      9.88445     -140.254 
0.00467809      1.81373     -138.576 
0.00234835      1.61988     -147.095 
0.00461593      9.67041     -141.044 
 0.0114558     0.252982     -71.5651 
 0.0249223      22.3532     -121.984 
0.00645263     0.576888     -123.690 
0.00647692      1.57785     -149.534 
 0.0146015      9.62031     -141.415 
0.00837476      1.75454     -136.848 
 0.0248060      3.91346     -139.145 
0.00809842      3.28877     -138.945 
 0.0283217      9.93579     -139.899 
 0.0273009      1.64730     -150.945 
0.00399683     0.688186     -125.538 
0.00404931      22.3957     -122.157 
0.00848428      21.8617     -122.294 
0.00381542     0.737564      40.6013 
 0.0106264      1.81019     -135.000 
 0.0108785      9.68297     -141.710 
 0.0379294     0.288444     -56.3099 
0.00311439      21.7513     -122.229 
 0.0274594     0.644981     -119.745 
 0.0235952      4.24603     -132.709 
0.00576960      22.2854     -122.093 
0.00487072     0.536656     -116.565 
0.00571046     0.288444     -33.6901 
 0.0136223      24.0259     -128.511 
0.00297766      1.75454     -133.152 
 0.0130143      21.6837     -122.341 
 0.0209916      9.63361     -142.083 
0.00841015      21.9971     -122.072 
 0.0169125      3.85331     -131.634 
0.00343796      2.20690     -133.531 
0.00854063     0.850412      41.1859 
 0.0100441      22.4635     -122.049 
0.00849587      21.7941     -122.407 
0.00346806      24.8754     -128.602 
 0.0106817      3.40165     -138.814 
 0.0135963      22.1074     -122.137 
0.00629918     0.800000      36.8699 
0.00474171      3.80063     -139.268 
 0.0135028      24.2771     -128.041 
0.00500974      3.80063     -130.732 
0.00165581      16.5787     -122.386 
0.00478662      24.8255     -128.458 
0.00774742      16.5360     -122.152 
0.00326111      22.5738     -122.113 
 0.0205435      3.74037     -131.532 
0.00506268      9.99712     -140.194 
0.00944871      2.14960     -135.000 
0.00269727      3.85331     -138.366 
0.00153373      21.9293     -122.183 
 0.0175066      9.94609     -140.548 
0.00981298      9.96634     -137.603 
0.00150622      23.9633     -128.630 
0.00432770      16.6463     -122.239 
0.00579324      22.7268     -122.347 
 0.0200212      23.9134     -128.480 
0.00963135      24.8882     -128.343 
 0.0238368      9.69684     -142.374 
 0.0173485      15.7505     -120.864 
0.00409442      22.7697     -122.518 
0.00540065      3.74037     -138.468 
0.00277866      16.3834     -121.827 
0.00434057      15.8602     -120.964 
0.00371503      2.26274     -135.000 
0.00138870      22.8537     -123.579 
0.00138783      21.5733     -122.276 
0.00138526     0.865332      33.6901 
0.00527776      2.00000     -143.130 
0.00395369      1.71767     -152.241 
 0.0238629      4.30070     -133.493 
0.00629851      16.7141     -122.093 
0.00366199      22.1752     -122.027 
0.00515074      22.8980     -123.746 
0.00265758      16.2733     -121.737 
 0.0122058      21.6562     -124.160 
 0.0115599      16.8209     -120.590 
0.00628843      1.11427      21.0375 
0.00251112      21.4630     -122.209 
0.00251154      21.9045     -122.471 
 0.0117745      24.3401     -127.925 
 0.0114089      1.60997     -153.435 
0.00213282      22.2430     -121.918 
0.00343169      21.7012     -124.334 
0.00246396     0.407922     -101.310 
 0.0105355      16.2313     -121.497 
 0.0129081      1.95305     -145.008 
0.00480950      22.7944     -122.240 
0.00128087      21.9721     -122.359 
 0.0100773      10.0256     -137.911 
0.00361879      23.8509     -128.600 
0.00479096      3.51454     -138.691 
0.00424290      21.8371     -122.584 
0.00124327     0.505964     -108.435 
0.00123680      21.4204     -122.028 
0.00560864      10.0794     -137.573 
0.00601465      16.3414     -121.589 
0.00250760      24.7759     -128.313 
0.00778276      22.8762     -124.024 
0.00237804      9.74589     -142.001 
0.00623813      10.0587     -140.486 
0.00576883      22.7518     -122.069 
0.00444384      23.8010     -128.449 
0.00349570      21.3527     -122.142 
0.00755348      1.18929      19.6538 
0.00427245      8.80909     -140.528 
0.00113899      21.9476     -122.647 
0.00113907      21.5451     -124.103 
0.00886793      2.20690     -136.469 
0.00223989      24.2910     -127.776 
0.00327642      16.6717     -121.860 
0.00433241      22.2177     -122.202 
0.00751884      20.9682     -124.114 
0.00530273      16.4438     -124.695 
0.00538434      16.8899     -120.452 
0.00529690      9.89545     -140.906 
0.00217364      3.68087     -137.643 
0.00211446      21.3102     -121.960 
0.00390059      8.87099     -140.856 
0.00733325      10.2840     -140.366 
0.00869947      21.8785     -124.271 
0.00506339      16.9305     -120.685 
0.00315093      21.5004     -123.927 
0.00212324      3.45485     -137.816 
0.00108014      16.8618     -120.824 
0.00107350      22.0397     -122.248 
0.00106739     0.329848     -75.9638 
0.00368545      16.7397     -121.715 
0.00219477      21.2424     -122.074 
0.00106126      22.9211     -124.189 
0.00539537      9.58465     -142.461 
0.00299564      22.8196     -121.963 
0.00207455      24.3543     -127.660 
0.00104496      1.76182     -129.472 
0.00103403      15.7535     -123.609 
0.00327323      23.3649     -128.047 
0.00246258      3.62215     -136.790 
0.00101039      2.06456     -144.462 
0.00100942      17.6468     -122.033 
0.00100283      20.9021     -124.237 
0.00259852      22.9713     -125.074 
0.00254694      22.9254     -124.910 
0.00250059      23.0269     -125.954 
0.00246764      22.9455     -124.632 
0.00243674      21.9690     -124.616 
0.00240828      23.0568     -124.683 
0.00238714      22.6829     -125.091 
0.00236815      23.2163     -126.593 
0.00235506      21.6352     -124.454 
0.00457736      22.5215     -124.142 
0.00231758      22.0803     -124.669 
0.00420741      23.3282     -126.634 
0.00429474      21.5240     -124.399 
0.00226750      23.1226     -124.570 
0.00223695      23.2640     -126.752 
0.00379500      21.9236     -124.444 
 0.0105642      3.62039     -135.000 
0.00732818      21.4128     -124.343 
0.00523986      23.4568     -126.401 
0.00218039      22.5431     -123.859 
0.00504591      17.5975     -124.629 
0.00215987      22.1220     -124.092 
0.00215741      23.1843     -127.147 
0.00214189      21.1696     -124.531 
0.00354375      23.5687     -126.442 
0.00210608      23.0090     -123.801 
0.00209733      23.1056     -127.544 
0.00209843      17.5317     -124.778 
0.00208794      22.2327     -123.404 
0.00208468      3.67739     -134.119 
0.00603236      21.0584     -124.475 
0.00206607      21.8124     -124.389 
0.00407841      17.1978     -124.577 
0.00582759      24.2880     -126.832 
0.00415272      17.6633     -124.482 
0.00296837      22.4544     -123.520 
0.00204252      23.6000     -126.870 
0.00202602      23.1544     -127.701 
0.00202006      23.0980     -123.415 
0.00317411      15.6655     -123.122 
0.00198796      16.4683     -122.300 
0.00198232      23.0912     -127.823 
0.00389930      18.7966     -124.772 
0.00247144      22.1450     -123.059 
0.00371890      3.79051     -134.145 
0.00197089      23.7282     -126.638 
0.00196258      16.7567     -122.324 
0.00195385      22.8764     -123.301 
0.00927484      15.6219     -122.876 
0.00194607      17.2891     -125.014 
0.00915137      3.90364     -134.170 
0.00550188      21.5901     -124.279 
0.00272495      3.45114     -135.939 
0.00192224      16.3580     -122.213 
0.00192159      23.5691     -127.414 
0.00230440      22.1887     -123.232 
0.00729524      23.0281     -127.945 
0.00190947      17.7506     -123.977 
0.00902064      20.9925     -124.598 
0.00554982      24.4000     -126.870 
0.00189789      17.1777     -124.948 
0.00188673      23.2317     -123.198 
0.00187278      22.5441     -123.126 
0.00368531      16.2477     -122.125 
0.00706115      18.7511     -124.571 
0.00185943      16.8244     -122.179 
0.00349428     0.357771     -116.565 
0.00184631      17.5120     -125.142 
0.00184678      3.56427     -135.909 
0.00356163      22.0349     -124.498 
0.00183550      23.7934     -127.486 
0.00182923      22.7889     -122.965 
0.00353216      17.7060     -123.762 
0.00182175      3.96141     -133.363 
0.00281454      22.2121     -122.946 
0.00353382      17.2236     -125.166 
0.00836721      3.50907     -136.848 
0.00348674      16.7819     -121.947 
0.00178798      23.1880     -123.032 
0.00176994      23.4569     -127.378 
0.00348010      4.24302     -134.236 
0.00176726      16.2053     -121.885 
0.00494582      22.7404     -127.999 
0.00175640      17.6234     -125.205 
0.00175582      22.6783     -122.905 
0.00174803      16.8921     -122.034 
0.00174532      23.7799     -125.829 
0.00174071      22.0581     -122.710 
0.00172546      1.92666     -138.366 
0.00171887      24.4963     -127.169 
0.00224021      23.2551     -122.925 
0.00171526      16.0951     -121.794 
0.00299345      21.4789     -124.223 
0.00169292      23.9544     -127.674 
0.00169037      22.5677     -122.845 
0.00328739      22.6281     -127.964 
0.00325283     0.178885     -26.5651 
0.00168275      16.3155     -121.976 
0.00167938      24.5601     -127.057 
0.00167781      2.26557     -137.862 
0.00476034      15.5986     -123.283 
0.00167244      20.9472     -124.418 
0.00329783      17.2698     -125.383 
0.00617881      3.84832     -133.315 
0.00381587      23.2117     -122.759 
0.00166039      15.8068     -121.759 
0.00825361      23.3789     -127.772 
0.00327247      17.6409     -122.969 
0.00165026      22.3465     -122.723 
0.00164181      24.6421     -127.614 
0.00311453      14.7382     -122.137 
0.00163450      23.8916     -125.872 
0.00163175      16.1632     -121.645 
0.00320874      20.8360     -124.361 
0.00161935      22.8128     -122.687 
0.00160264      24.6084     -127.205 
0.00463716      22.4571     -122.784 
0.00307672      18.8170     -124.433 
0.00159298      24.1156     -127.858 
0.00442930      14.7810     -122.400 
0.00158473      16.2872     -124.393 
0.00310305      1.39943     -149.036 
0.00157561      17.6697     -125.417 
0.00305630      16.0531     -121.551 
 0.0149319      25.6031     -127.765 
0.00156544      17.7080     -122.829 
0.00306759      3.56786     -137.726 
0.00156594      21.3468     -124.464 
0.00303153      16.9179     -121.661 
0.00307636      23.8448     -125.716 
0.00155257      15.4878     -123.198 
0.00453668      9.39549     -141.569 
0.00165855      23.1685     -122.593 
0.00154522      24.6278     -127.875 
0.00154164      18.7058     -124.370 
0.00153879      2.43311     -136.332 
0.00153347      16.4514     -121.681 
0.00434220      20.7248     -124.303 
0.00294896      17.3163     -125.599 
0.00152811      25.5399     -127.875 
0.00428054      9.50789     -141.491 
0.00247566      23.1403     -127.979 
0.00151614      15.9431     -121.457 
0.00793673      21.3016     -124.287 
0.00518085      22.5651     -128.089 
0.00296375      17.6648     -122.611 
0.00291780      16.6296     -121.626 
0.00150495      21.8336     -124.098 
0.00987970      23.2790     -122.652 
0.00150147      17.4929     -125.507 
0.00296267      15.5548     -123.036 
0.00149336      24.8665     -127.681 
 0.0220327     0.737564      49.3987 
0.00790775      22.6774     -128.123 
0.00148449      24.2568     -126.416 
0.00430528      10.0319     -138.556 
0.00283138      23.3300     -127.617 
0.00146245      17.7162     -125.628 
0.00553814      1.46860     -150.642 
0.00145854      9.04566     -141.103 
0.00283960      9.55791     -141.116 
0.00145021      23.7982     -125.560 
0.00764435      14.6706     -122.303 
0.00283355      20.6136     -124.245 
0.00144383      16.2213     -124.552 
0.00281157      24.8387     -128.199 
0.00143888      2.60215     -135.000 
0.00143546      21.7674     -124.216 
0.00143665      16.9860     -121.519 
0.00143073      18.8831     -124.296 
0.00622284     0.240000     -90.0000 
0.00142189      22.5244     -122.674 
0.00141732      24.0503     -126.069 
0.00834477      20.2356     -123.879 
0.00141112      23.2526     -128.013 
0.00407494      16.1213     -121.403 
0.00140362      17.7753     -122.689 
0.00140195      24.9646     -127.972 
0.00270006      18.3053     -123.412 
0.00381928      23.7518     -125.403 
0.00138146      17.4279     -125.660 
0.00346401      21.2356     -124.408 
0.00137729      17.8859     -124.614 
0.00386860      2.27403     -140.711 
0.00504461      14.7135     -122.567 
0.00268629      18.8381     -124.095 
0.00135985      16.7661     -121.339 
0.00135967      9.60833     -140.744 
0.00743937      23.0773     -128.101 
0.00135233      17.3163     -121.781 
0.00134992      9.17074     -141.730 
0.00134620      24.0033     -125.915 
0.00134553      16.2668     -124.784 
0.00476142      2.71529     -135.000 
0.00565314      15.5867     -121.569 
0.00708095      4.41380     -133.531 
0.00133336      17.8859     -122.766 
0.00133043      25.0769     -128.003 
0.00132909      17.3629     -125.814 
0.00360968      16.2996     -121.350 
0.00257493      3.84832     -136.685 
0.00132175      8.75845     -140.932 
0.00132148      22.4139     -122.612 
0.00131730      24.1621     -126.111 
0.00131286      15.4651     -123.608 
0.00606994      23.3464     -122.546 
0.00131044      16.6978     -121.482 
0.00378464      9.65915     -140.377 
0.00204317      20.0136     -123.754 
0.00254383      6.33669     -136.023 
0.00254507      9.34597     -141.953 
0.00129737      17.8746     -125.895 
0.00352982      23.7055     -125.245 
0.00255725      8.64592     -141.009 
0.00960062      20.4576     -124.001 
0.00249610      17.2513     -125.754 
0.00367234      16.5878     -121.390 
0.00334159      22.9021     -128.191 
0.00809824      6.39250     -135.507 
0.00127497      17.1642     -121.468 
0.00248199      1.53883     -152.103 
0.00127461      15.5542     -124.099 
0.00248118      18.9044     -123.959 
0.00126979      25.0634     -128.260 
0.00569499      24.2739     -126.152 
0.00424527      19.9026     -123.690 
0.00245553      17.9518     -124.469 
0.00536153      23.3157     -127.892 
0.00469470      16.3125     -125.015 
0.00243955      18.4162     -123.483 
 0.0154964      5.54487     -136.169 
0.00125251      21.4340     -124.046 
0.00235919      22.7898     -128.157 
0.00360960      17.1226     -121.239 
0.00310298      15.6549     -121.416 
0.00241895      1.36000     -151.928 
0.00124231      21.7697     -122.697 
0.00123832      16.4096     -121.443 
0.00123561      22.2913     -127.857 
0.00476443      8.59581     -141.423 
0.00123307      17.8098     -126.046 
0.00451706      9.72091     -140.677 
0.00122714      17.9964     -122.842 
0.00122770      25.0006     -128.373 
0.00122768      21.1244     -124.352 
0.00122603      15.4220     -124.432 
0.00214112      24.3212     -126.304 
0.00122076      22.3708     -122.440 
0.00229605      9.40910     -142.253 
0.00120307      15.7916     -121.113 
0.00344156      25.1130     -128.403 
0.00119120      22.4036     -127.893 
0.00234713      10.1613     -139.790 
0.00118876      21.3678     -124.166 
0.00118893      22.8372     -122.410 
0.00347766      15.3560     -124.601 
0.00799508      1.90830     -146.976 
0.00629929      3.90692     -132.510 
0.00945460      10.0205     -137.265 
0.00798158      19.8361     -123.818 
0.00232335      23.3035     -122.381 
0.00116822      9.23368     -142.038 
0.00116939      17.9216     -126.103 
0.00116587      21.7459     -122.989 
0.00329653      3.90692     -137.490 
0.00437743      18.9708     -123.824 
0.00323719      2.28806     -143.531 
0.00114991      17.9532     -122.628 
0.00739880      1.43108     -153.435 
0.00437537      16.4779     -121.298 
0.00114070      9.57062     -141.789 
0.00454805     0.688186      54.4623 
0.00221776      17.2981     -125.969 
0.00368574      22.0179     -127.619 
0.00113601      18.3722     -123.275 
0.00630376      25.7154     -127.797 
0.00113379      8.62517     -139.514 
0.00208519      4.35908     -132.769 
0.00112893      21.7766     -121.938 
0.00112891      16.0798     -121.159 
0.00405083      10.1098     -140.136 
0.00833910      10.5515     -130.696 
0.00726657      20.3466     -123.940 
0.00220865      17.8570     -126.254 
0.00328013      8.54616     -141.843 
0.00112168      17.0127     -121.149 
0.00112278      25.0503     -128.517 
0.00327811      23.4139     -122.441 
0.00111174      9.29688     -142.341 
0.00111068      21.7895     -123.165 
0.00111024      6.28548     -137.579 
0.00110497      15.4016     -124.846 
0.00210031      17.9972     -124.679 
0.00216528      14.6225     -123.168 
0.00109735      17.0813     -121.010 
0.00109443      15.8876     -124.330 
0.00109196      23.3449     -126.359 
0.00210014      21.8445     -121.827 
0.00206231      20.5687     -124.061 
0.00108801     0.644981     -150.255 
0.00107694      23.4911     -127.807 
0.00107844      17.7998     -122.333 
0.00507149      14.6958     -121.873 
0.00414152      10.6123     -130.414 
0.00205386      21.9126     -121.717 
0.00107191      2.82843     -135.000 
0.00306451      23.5244     -122.501 
0.00817674      8.56448     -139.167 
0.00312364      25.1628     -128.546 
0.00486961      6.29158     -138.608 
0.00221945      18.2177     -122.992 
0.00206594      21.6788     -123.104 
0.00305295      24.2268     -126.000 
0.00152774      17.1911     -121.101 
0.00105820      22.3687     -124.656 
0.00119452      15.5787     -122.629 
0.00207410      20.3020     -123.753 
0.00397823      6.44881     -135.000 
