! Center RA: 16 42 58.80997,  Dec: +39 48 36.99402 (2000.0)
! Established model.
! Flux (Jy) Radius (mas)  Theta (deg)  Major FWHM (mas)  Axial ratio   Phi (deg) T \
! Freq (Hz)     SpecIndex
   2.50684      0.00000      0.00000 
  0.231303    0.0600000      90.0000 
0.00787010     0.120000     -90.0000 
 0.0222223     0.180000     -90.0000 
 0.0898397     0.120000      90.0000 
 0.0513248     0.247386     -104.036 
 0.0718327     0.240000     -90.0000 
 0.0984621     0.305941     -101.310 
 0.0143940     0.189737      108.435 
 0.0536361      2.46000     -102.680 
  0.164156     0.180000      90.0000 
 0.0340594      2.40150     -102.995 
 0.0157097     0.646220     -111.801 
 0.0109648     0.724983     -114.444 
 0.0370053      1.56461     -94.3987 
 0.0778003     0.702282     -109.983 
 0.0158888      2.41570     -104.381 
0.00864220      2.60500     -97.9435 
0.00829572      2.35763     -104.744 
 0.0153471      2.65699     -96.4831 
 0.0169144      2.28473     -103.671 
0.00737948      1.50479     -94.5739 
 0.0137792      1.57035     -96.5819 
0.00885232      2.29965     -105.124 
 0.0152682      2.66443     -97.7652 
0.00218828      1.44499     -94.7636 
0.00996436      1.22376     -101.310 
0.00613926      2.22648     -104.036 
 0.0102920      1.63768     -98.4270 
0.00582423      2.71662     -96.3402 
0.00548655      2.54700     -105.018 
0.00734171      2.21269     -102.529 
 0.0244439      1.17881     -104.744 
 0.0178815      2.72389     -97.5946 
 0.0142028     0.216333     -56.3099 
0.00339655      1.38521     -94.9697 
 0.0234489      1.70658     -100.125 
0.00171250      2.14159     -101.310 
0.00338763     0.323110     -111.801 
 0.0119705      2.50567     -106.699 
 0.0134586      2.13063     -99.7276 
 0.0303338     0.402492     -116.565 
0.00156089      1.69706     -98.1301 
0.00970724      1.38130     -92.4896 
0.00393136      2.31603     -106.557 
 0.0102429      2.78338     -97.4314 
 0.0105953      1.44125     -92.3859 
0.00491021      2.12132     -98.1301 
 0.0269644     0.758947     -108.435 
 0.0113086      2.56320     -106.314 
0.00863956      2.52071     -91.3639 
 0.0100960      1.12089     -105.524 
0.00325260      2.25858     -106.991 
0.00433703      2.79177     -98.6525 
0.00618567      2.11367     -96.5198 
 0.0157814     0.254558     -45.0000 
0.00202841      1.76567     -99.7824 
 0.0163618      2.85110     -98.4711 
0.00526331      2.27684     -108.435 
 0.0161177     0.247386      104.036 
0.00446275      2.05407     -96.7098 
 0.0121062      1.16499     -101.889 
 0.0126967      2.46073     -91.3972 
 0.0102657      2.58070     -107.592 
0.00352151      1.77685     -101.689 
 0.0110665      2.04793     -95.0425 
0.00574950      2.22000     -108.925 
0.00654245      2.62084     -105.945 
0.000667051      1.50120     -92.2906 
 0.0136992     0.268328      116.565 
0.00583414     0.349857     -120.964 
0.00166881     0.780000     -112.620 
0.00363935      2.52000     -90.0000 
0.00307794      1.44000     -90.0000 
0.00275283     0.189737      71.5651 
0.00209187      2.90241     -97.1250 
0.00189390      2.86056     -99.6599 
0.00269302      1.78997     -103.570 
0.00473778     0.268328     -26.5651 
0.00785129      2.24018     -110.376 
0.00251101      4.01462     -80.5377 
0.00426298      1.50000     -90.0000 
0.00229511     0.816088     -107.103 
 0.0104730      6.34810     -82.9422 
0.00475010      4.17852     -74.1676 
0.00654053      3.00240     -92.2906 
0.00527378      2.63795     -107.199 
0.000470527      1.71814     -102.095 
0.00725377      6.89139     -82.9987 
0.00323576      2.46000     -90.0000 
0.00264880      4.00520     -81.3844 
0.00134369      2.04353     -93.3665 
0.00390188      1.80499     -105.422 
0.00114993      5.88031     -81.7872 
0.00406271      1.98363     -93.4682 
0.00154312      5.88918     -81.2095 
0.00486486     0.384187     -128.660 
0.00404268      2.87124     -100.840 
0.00251884      4.25281     -73.6105 
0.00125012     0.216333      33.6901 
0.00101069      4.11558     -82.4606 
0.00336647      6.07217     -78.0239 
0.000704229      3.95545     -80.3948 
0.000714534      4.10814     -83.2902 
0.00134477      4.46789     -75.2173 
0.00299185      5.02068     -75.4655 
0.000675335      3.89631     -80.2476 
0.000991353      6.15665     -77.0472 
0.00415294     0.300000     -36.8699 
0.00185024      4.16773     -83.3865 
0.00361942      4.19528     -73.3792 
0.00307712      5.81257     -82.2881 
0.000861558      3.82732     -80.9807 
0.00146059      6.38880     -75.3112 
0.00159066     0.216333      56.3099 
0.00351152      4.52593     -75.4111 
0.00317103      6.46220     -74.9315 
0.00301138      1.56115     -87.7974 
0.00259726      5.00596     -76.1303 
0.00296014      3.69962     -81.6071 
0.00287059      6.88433     -83.4944 
0.00192840      1.82187     -107.241 
0.00186340      3.06059     -91.1233 
0.00127344      4.22734     -83.4802 
0.00211708      5.69526     -73.4742 
0.00317757     0.384187      128.660 
0.00144274      6.24461     -87.7974 
0.000495409      1.73170     -104.036 
0.00182568      6.94395     -77.5249 
0.00226149      6.40428     -74.7920 
0.00312067      7.63204     -73.5596 
0.00129435      7.66428     -80.5377 
0.00155502      6.18262     -88.3317 
0.00204777      7.41504     -84.4278 
0.000243215      6.07157     -71.5651 
0.00152714      6.60109     -88.9584 
0.00159480      2.93019     -100.620 
0.000885995      6.14758     -71.2114 
0.00110042      5.94030     -89.4213 
0.000231665      1.50120     -87.7094 
0.00125647      2.26177     -111.801 
0.000565177      4.75857     -84.9364 
0.00140534      2.88312     -102.011 
0.00168986      7.34969     -84.8479 
0.000858297      8.37811     -78.8510 
0.00140966      4.28696     -83.5713 
0.00169581      7.72347     -80.6109 
0.00200616      5.88031     -89.4154 
0.00334650      4.81834     -84.9994 
0.000957045      6.35575     -82.4054 
0.00154610      1.20599     -95.7106 
0.00309904      8.43699     -78.9298 
0.000923530      3.88659     -81.1193 
0.00114178      3.06000     -90.0000 
0.000213361      4.35362     -82.8750 
0.00153061      7.83798     -70.3167 
0.000600750      6.24260     -88.3477 
0.000792685      1.26000     -90.0000 
0.000578077      1.56461     -85.6013 
0.00117169      7.40945     -84.8896 
0.000779793      8.01983     -74.8201 
0.00144055      5.74529     -82.8008 
0.00137365      6.22383     -70.8664 
0.00109605     0.800500     -102.995 
0.000210934      5.79986     -65.5560 
0.000380063      6.95715     -77.0424 
0.000663406      3.64027     -81.4692 
0.000382194      5.88000     -90.0000 
0.000419500      1.19549     -107.526 
0.000848890      6.60027     -89.4791 
0.000188084     0.300000     -53.1301 
0.000187642      5.60446     -74.4759 
0.00126556      5.85454     -65.7990 
0.00106744      8.98338     -74.1072 
0.000594466      6.44686     -75.4464 
0.000785979      7.96193     -74.7070 
0.00115377      8.96714     -74.4759 
0.000389490      7.00254     -77.6309 
0.00142588      1.56115     -92.2026 
0.000727048      4.34037     -84.4470 
0.000378660      7.65676     -74.5480 
0.00231633      5.62082     -73.8866 
0.000375357      6.98994     -78.1113 
0.00190738      5.05035     -76.9544 
0.000715835      7.71391     -81.0505 
0.000676472      4.27518     -85.1696 
0.000702510      1.62111     -92.1211 
0.000720866      8.03575     -74.4072 
0.000577680      4.28065     -84.3693 
0.000853675      7.04866     -78.2118 
0.000932920      3.94588     -81.2538 
0.00102131      5.94121     -88.8427 
0.000348910      6.83947     -82.4386 
0.000681736      8.50435     -69.7751 
0.00189527      7.61527     -73.9926 
0.00127830      2.91973     -99.4623 
0.00238625     0.742159     -104.036 
0.000341355      8.97877     -75.6852 
0.000647525      6.24260     -72.0875 
0.00107614      9.00000     -73.7398 
0.000329398      4.21540     -85.1009 
0.000329120      7.65465     -80.9807 
0.00186699      8.09355     -74.5214 
0.000323780      8.52465     -67.2250 
0.000632650      9.00820     -76.5191 
0.00247924      6.89896     -82.5041 
0.000320485      2.66308     -104.349 
0.00185474      7.85840     -69.9048 
0.000585444      5.06423     -76.2930 
0.000319347      8.95629     -70.8368 
0.000316683      7.42110     -83.9667 
0.000605313      9.52111     -77.6278 
0.000314621      3.42210     -92.0096 
0.000559445      8.56068     -69.9140 
0.000606688      3.63186     -82.4054 
0.000309112      6.89870     -76.9307 
0.00103524      4.54141     -74.6785 
0.000607215      9.82279     -76.2184 
0.000891104      6.48111     -88.9391 
0.00111917      8.49291     -66.6951 
0.000535984      9.48873     -72.7108 
0.00239293     0.268328     -63.4349 
0.000301211      9.01299     -70.9620 
0.000577959      3.00240     -87.7094 
0.000850927      2.16333     -109.440 
0.000571293      1.56000     -90.0000 
0.000293885      8.49588     -79.0075 
0.00108485      9.50673     -72.3655 
0.000999096      3.48465     -92.9609 
0.000520683      5.67849     -83.3255 
0.000561478      1.20150     -92.8624 
0.000530583      4.21070     -85.9144 
0.000552163      6.85420     -76.3287 
0.000560345      8.97617     -70.4750 
0.00107999      9.89545     -75.9638 
0.000284728      8.61371     -79.1597 
0.000534639      6.26131     -71.5651 
0.00105116      5.28136     -88.6980 
0.000281992      4.48357     -74.4759 
0.000773732      8.54805     -66.8542 
0.000280354      8.15139     -74.6339 
0.000929193      9.56393     -72.4744 
0.000277228      9.05284     -76.9769 
0.000274032      5.29532     -70.1278 
0.000757951      4.27013     -72.8381 
0.000786251      6.54028     -89.4744 
0.000526185      8.36672     -79.2541 
0.000269332      4.20685     -86.7295 
0.000268245      9.39110     -77.8285 
0.000525048      5.82000     -90.0000 
0.000501341      6.20442     -71.3898 
0.000747835      3.00540     -86.5664 
0.00195596      3.57239     -82.2782 
0.000264008      9.45985     -68.8059 
0.000263247      1.62000     -90.0000 
0.000512939      8.66164     -79.6242 
0.000261690      4.55763     -73.9510 
0.000457597      8.35703     -74.1676 
0.000260084      6.30457     -81.7928 
0.000507160      4.75857     -66.9911 
0.000256908      7.17245     -70.9588 
0.000256464      4.14391     -87.5104 
0.000496208      5.31601     -69.5196 
0.000494440      1.20000     -90.0000 
0.000491386      8.91964     -70.3462 
0.000476981      5.71262     -72.8973 
0.000252725      7.57451     -73.4312 
0.000570848      9.53755     -68.6002 
0.000700135      9.57973     -77.7047 
0.00110862      5.76125     -91.1935 
0.000632807      6.14348     -77.5926 
0.000483510      8.32250     -84.2072 
0.000647910     0.300000     -90.0000 
0.000301535      9.21523     -77.5926 
0.000689269      1.62111     -87.8789 
0.00105904      7.19225     -70.5069 
0.000477023      9.96831     -75.7128 
0.00103294      3.54457     -92.9108 
0.000239441      6.50495     -75.5792 
0.000239042      4.78234     -66.3295 
0.00141583      8.29672     -79.5840 
0.00121898     0.379473     -108.435 
0.00142852      6.31341     -81.2538 
0.000231724     0.789177     -98.7462 
0.00194045      4.72745     -66.0375 
0.000731046      6.79591     -76.2091 
0.000589666      9.15664     -77.5119 
0.000228191      5.67246     -66.9606 
0.000438369      8.38220     -84.2486 
0.000439299      3.90046     -90.8814 
0.00149729      5.28034     -89.3489 
0.000754448      9.61536     -68.3978 
0.00101002      2.18403     -110.925 
0.000223484      10.0265     -75.7974 
0.000630667      3.00958     -85.4261 
0.000580230      8.57181     -66.4854 
0.00186604      6.60000     -90.0000 
0.000220038      8.94000     -69.9840 
0.000417789      2.52071     -88.6361 
0.000218539      8.07217     -84.8827 
0.00121262      3.58095     -81.3268 
0.000597011      5.41498     -68.5523 
0.000918504      8.43123     -73.8866 
0.000418584      1.20150     -87.1376 
0.000425533      10.0846     -75.8811 
0.000298509      8.70000     -80.4727 
0.000410578     0.729931     -99.4623 
0.000603302      8.51683     -66.3244 
0.00169700      4.21284     -72.5973 
0.000793377      8.54026     -70.2920 
0.000396897      5.75124     -66.6444 
0.000389128      1.18186     -113.962 
0.000552355      8.00725     -85.2720 
0.000312440      6.13087     -78.1402 
0.000205481      1.62444     -85.7636 
0.000402291      5.82031     -90.5907 
0.000547764      9.56713     -78.0558 
0.000721854      7.34455     -85.3141 
0.00100568      4.87332     -85.7636 
0.00138905      10.1428     -75.9638 
0.000391105      8.99640     -70.1148 
0.000200470      4.20171     -88.3634 
0.000681616      8.74951     -80.9252 
0.000198419      7.68586     -87.7630 
0.000311789      9.69330     -68.1986 
0.000707674      6.73766     -76.0875 
0.00100080      8.44190     -84.2894 
0.000193228      4.14043     -89.1697 
0.000192818      5.78775     -72.5042 
0.000720135      7.68375     -88.2101 
0.000976335     0.305941     -78.6901 
0.000548386      1.68428     -85.9144 
0.000189094      1.01823     -135.000 
0.000700168      9.74903     -68.3296 
0.000891517      9.20252     -77.9574 
0.000187134      1.14630     -83.9910 
0.000570390      4.61532     -74.1569 
0.000363250      2.96196     -83.0189 
0.000185643      9.87360     -73.7676 
0.000185423      5.68577     -82.7250 
0.000358576      9.84439     -80.8821 
0.000675171     0.364966     -99.4623 
0.000337215      3.84187     -91.7899 
0.000339682      8.92569     -74.0017 
0.000179046      1.20599     -84.2894 
0.000315505      7.87921     -69.4950 
0.000178824      9.62584     -78.1297 
0.000796915      5.76281     -91.7899 
0.000321271      10.3800     -72.5077 
0.000803577      5.77529     -66.0979 
0.000456014      9.46118     -81.6130 
0.000916390      1.06151     -137.291 
0.000342241      4.20043     -89.1815 
0.000175248      10.5794     -75.8849 
0.000336836      6.30029     -70.5297 
0.000322503      6.18116     -88.8876 
0.00273155     0.240000      90.0000 
0.000323485      9.01698     -69.7563 
0.000595766      9.83305     -73.3342 
0.00110665      7.13571     -70.3462 
0.00161800      10.6376     -75.9638 
0.000330401      1.15412     -81.0274 
0.000641619      2.91046     -81.7029 
0.00136139      2.20617     -112.380 
0.000485332      4.15562     -72.3499 
0.00169965      9.40183     -81.5596 
0.000655176      10.4372     -72.6067 
0.000167611      8.65083     -66.2796 
0.000167637      5.42826     -76.5782 
0.000318904     0.722496     -94.7636 
0.000165867      10.2011     -76.0455 
0.000907035      1.68962     -83.8845 
0.000321055      9.90364     -80.9371 
0.000612153      3.83437     -69.8637 
0.000162073      6.12118     -88.8767 
0.000989511      3.48827     -93.9452 
0.000609701      7.62213     -88.6468 
0.000159499      8.54110     -65.9558 
0.000518467      5.09576     -77.7639 
0.000300929      4.20000     -90.0000 
0.000289222      6.67943     -75.9638 
0.000559272      5.43721     -67.9638 
0.000882948      2.94184     -101.768 
0.000155296      8.70579     -66.4385 
0.000411286      7.67437     -80.0958 
0.000298155      1.62997     -83.6598 
0.000152992      6.24375     -70.3462 
0.000152409      9.80481     -68.4590 
0.000286773      8.00252     -85.7001 
0.000151030      5.41465     -77.1957 
0.000150810      4.26000     -90.0000 
0.000163587      1.21342     -81.4692 
0.000424951      9.89436     -81.2803 
0.000148317      1.20748     -116.565 
0.000239407      4.68961     -73.6518 
0.000148181      8.48634     -65.7907 
0.000317898      6.24115     -88.8983 
0.000147122      5.22034     -89.3415 
0.000276559      1.98091     -91.7357 
0.000521745      7.02103     -89.0207 
0.000517679      4.75214     -65.3764 
0.000274669      9.86065     -68.5870 
0.00101691      2.91973     -80.5377 
0.000144539      8.45659     -65.2533 
0.000144270      5.86314     -72.1213 
0.000712516      8.94242     -73.6322 
0.000382605      7.10740     -78.3106 
0.000142338      10.6232     -76.2777 
0.000622801      8.78483     -66.2362 
0.000530979      1.16499     -78.1113 
0.000392075      5.28000     -90.0000 
0.000139960      7.08102     -89.0290 
0.000272712      6.32054     -70.0169 
0.000508935      8.23772     -79.5085 
0.000139114      9.89491     -69.0373 
0.000524824      7.56095     -89.0906 
0.00146536      10.6815     -76.3540 
0.000176466      5.69368     -82.1261 
0.000262919      4.63206     -73.4429 
0.000490289      10.3982     -72.1924 
0.000136330      2.52642     -85.9144 
0.000388291      4.26042     -90.8069 
0.000135091      3.77809     -69.5505 
0.000134935      8.37339     -64.5367 
0.000577542      5.70505     -92.4110 
0.000131861      8.34539     -63.9876 
0.000601522      8.43614     -84.6949 
0.000722029      5.47317     -77.3349 
0.000370040      9.88544     -81.6240 
0.000129654      7.21249     -70.0576 
0.000129587      4.69766     -65.0715 
0.000491329      1.06827     -141.843 
0.000214720      4.81348     -85.7108 
0.000127820      8.31817     -63.4349 
0.000127260      3.85544     -69.0265 
0.000549267     0.720000     -90.0000 
0.000125861      7.81130     -65.0097 
0.000125337      5.22000     -90.0000 
0.000349208      10.4553     -72.2929 
0.000580782      3.90185     -91.7624 
0.000884765      8.22700     -79.9194 
0.000550493      9.95096     -69.1609 
0.000123211      6.26418     -69.8293 
0.000350756      8.37188     -63.6186 
0.000121828      3.79947     -68.7026 
0.000553128      8.83977     -66.3929 
0.000121343      6.66027     -90.5162 
0.000980635      1.26143     -115.346 
0.000121000      7.99825     -86.1287 
0.000120381      9.81747     -81.9194 
0.000227423      8.15757     -62.8695 
0.000454125      7.56024     -89.5453 
0.000507661      8.88486     -73.5231 
0.000443088      1.17881     -75.2564 
0.000415301      7.64924     -73.1286 
0.000117216      3.82167     -67.8645 
0.000116420      9.02018     -82.3550 
0.000452358      1.92094     -88.2101 
0.000520111      7.27486     -65.1258 
0.00195758      1.11606     -143.746 
0.000960625      6.34129     -69.5074 
0.000327383      5.28034     -90.6511 
0.000216924      8.50562     -73.6105 
0.000424782      4.32167     -91.5911 
0.000747088      4.70685     -72.9510 
0.000113795      6.54000     -90.0000 
0.000189964      1.63768     -81.5730 
0.000113587      8.07686     -63.0543 
0.000216039      6.00030     -89.4271 
0.000112266      7.90476     -83.8999 
0.000111844      2.53140     -84.5597 
0.000403072      7.02026     -89.5103 
0.000111212      9.77558     -73.2334 
0.000110977      3.86849     -66.2180 
0.000217951      9.87688     -81.9683 
0.000641930      3.42841     -94.0142 
0.000110134      5.35918     -68.3177 
0.000372213      5.76156     -81.6168 
0.000186016      6.48028     -89.4695 
0.000107148      1.74929     -84.0939 
0.000107131      4.58912     -64.4400 
0.000308999      3.91842     -64.6121 
0.000105280      2.74233     -79.9194 
0.000205223      8.10422     -62.6761 
0.000204397      7.99104     -86.9872 
0.000294753      10.3791     -79.3397 
0.000285126      1.69706     -81.8699 
0.000104506      10.5549     -69.7108 
0.000569653      7.50000     -90.0000 
0.000718759      2.22971     -113.806 
0.000103233      8.98519     -84.2513 
0.000201322      8.39871     -63.2519 
0.000289523      8.43080     -85.1009 
0.000888104      7.17847     -77.9387 
0.000297931      1.98000     -90.0000 
0.000101876      6.60027     -90.5209 
0.000380811      9.86868     -82.3133 
0.00105074      2.97893     -80.7274 
0.000100895      9.55489     -78.4078 
0.000100346      9.21444     -68.6143 
0.000100378      4.80675     -65.6744 
0.000488493      11.0597     -76.1899 
0.000194464      5.76500     -92.3859 
9.99957e-05     0.780000     -90.0000 
9.96317e-05      8.69027     -80.8628 
9.91363e-05      3.51295     -82.1467 
0.000194577      5.22138     -91.3169 
0.000282401      1.22376     -78.6901 
0.000457824      10.5758     -69.4059 
0.000550381      5.38164     -67.7241 
0.000413218      2.68328     -79.6952 
0.000222168     0.323110     -68.1986 
