! Center RA: 04 18 21.27724,  Dec: +38 01 35.80018 (2000.0)
! Tentative model.
! Flux (Jy) Radius (mas)  Theta (deg)  Major FWHM (mas)  Axial ratio   Phi (deg) T \
! Freq (Hz)     SpecIndex
  0.161553    0.0848528     -135.000 
 0.0241902      0.00000      0.00000 
 0.0420952     0.134164     -116.565 
 0.0462312     0.134164      63.4349 
 0.0384690     0.216333      56.3099 
 0.0881374     0.216333     -123.690 
 0.0925030     0.268328      63.4349 
 0.0762093     0.268328     -116.565 
 0.0106592     0.189737     -108.435 
0.00529025     0.349857      59.0362 
 0.0376037     0.402492      63.4349 
 0.0747400    0.0848528      45.0000 
 0.0272984     0.456946      66.8014 
 0.0563407     0.323110     -111.801 
 0.0574359     0.536656      63.4349 
0.00630337     0.349857     -120.964 
 0.0409729     0.402492     -116.565 
0.00632472     0.512640      69.4440 
 0.0301085     0.590931      66.0375 
 0.0104262     0.247386      75.9638 
 0.0321493    0.0848528     -45.0000 
 0.0246722      1.02000      61.9275 
 0.0150875     0.305941      78.6901 
 0.0130204     0.670820      63.4349 
0.00828126      1.10145      60.6422 
0.00571638      1.23548      60.9454 
0.00398626     0.804984      63.4349 
0.00391646      1.31727      59.9314 
0.00348639     0.939149      63.4349 
0.00241277     0.885889      61.6992 
 0.0340621     0.483735     -119.745 
0.00592823      1.36953      61.1892 
 0.0137406     0.240000      90.0000 
 0.0201142      1.45121      60.2551 
 0.0218039      2.89993      65.5560 
0.00644170      3.92347      66.5713 
0.00469167      3.97859      66.9149 
 0.0119968     0.134164     -63.4349 
0.00526918      4.59343      66.1135 
0.00363676      1.88308      59.3493 
0.00684749      4.67269      65.7387 
0.00231662      1.85321      60.9454 
0.00235316      4.00250      66.1247 
0.00629158      1.93494      60.2551 
 0.0101517      3.94771      65.7723 
0.000759175      4.45942      66.1941 
0.00485320      4.72745      66.0375 
0.000993195      4.43554      66.9032 
0.00243087      4.38041      66.5953 
0.000703014      4.59225      61.0908 
0.000681985     0.300000      90.0000 
0.00578720      4.62156      60.4396 
 0.0119443      4.35693      67.3194 
0.00821798     0.617738      60.9454 
0.00682708      1.53323      59.4208 
0.00749849      4.78234      66.3295 
 0.0120318     0.247386      104.036 
0.00325196      1.98726      61.1134 
0.00104495      4.30163      67.0113 
0.00300959     0.189737      108.435 
0.00346001      2.87562      66.6444 
0.00464607      4.80675      65.6744 
0.00195680      1.07331      63.4349 
0.00226419      4.32541      66.2796 
0.000498499      3.97271      64.9831 
0.00345160     0.169706     -45.0000 
0.000487973      2.06891      60.4612 
0.00184911      3.86849      66.2180 
0.00523247     0.993177      64.9831 
0.00173928      2.04000      61.9275 
0.00362749      4.65145      59.7968 
0.00232778      2.95466      66.0375 
0.00211561      1.39943      59.0362 
0.00308813      2.12132      61.2602 
0.000461086      3.99845      64.2040 
0.00196164      1.58518      60.5241 
0.00142137      1.63768      61.5571 
0.00318430      2.93080      67.1094 
0.00181703      2.25539      61.3895 
0.000432420      4.10551      63.0605 
0.000432010      1.90589      61.8214 
 0.0117897     0.536656     -116.565 
0.000422142      3.84468      67.0362 
0.000415536      4.05211      62.6761 
0.00219930      1.82483      62.5924 
0.000412280      2.33692      60.8025 
0.00119129      3.78951      66.6823 
0.00151205      4.13304      62.3189 
0.00300842      4.70340      60.1645 
0.00184781      2.38948      61.5044 
0.000380448      1.18338      59.5345 
0.00300216      3.76617      67.5206 
0.000355386      2.83019      68.8753 
0.00246956      4.10858      61.1892 
0.00187380      4.86148      65.9657 
0.00307057      1.34833      57.7244 
0.00159904      2.47095      60.9454 
0.000335075      2.80913      70.0169 
0.00162115      1.69068      62.5256 
0.000321707      3.00958      66.5014 
0.00562567     0.216333     -56.3099 
0.000966478      2.78919      71.1753 
0.000857770      3.03401      65.4623 
0.000873462      3.08869      65.9245 
0.00137231      2.52357      61.6070 
0.000292347      1.26570      58.5704 
0.00164705      2.73247      70.7693 
0.000568978      3.23110      68.1986 
0.00106752     0.913893      66.8014 
0.000966240      3.74363      68.3691 
0.000559976      4.41235      67.6199 
0.00132710      4.88623      65.3231 
0.000272429      3.79947      68.7026 
0.000910970      3.28688      68.5870 
0.00100404      4.13783      60.4612 
0.00199594      3.83437      69.8637 
0.000256104      1.29800      56.3099 
0.000803021      4.73354      59.5345 
0.000251420      3.05941      64.4400 
0.000377386      3.77809      69.5505 
0.000464108      1.74413      63.4349 
0.000721394      2.57651      62.2415 
0.000248757      4.49079      67.2035 
0.00426070      4.68192      59.1622 
0.00150313      3.20930      69.1932 
0.000713812      4.96588      64.9831 
0.000244505      3.65557      66.8014 
0.000240812      3.16639      62.9494 
0.00109864     0.969330      68.1986 
0.00125216      4.54616      67.4965 
0.00109317      4.99155      64.3590 
0.000785339      3.27536      61.5571 
0.000521862      3.60050      66.4253 
0.000871954      4.08573      60.0464 
0.000508457      3.15328      68.8059 
0.000227387      1.85224      65.0952 
0.000854070      2.62975      62.8503 
0.000831179      2.17412      62.0205 
0.000591531      3.57693      67.3062 
0.00215331      1.38130      55.6197 
0.000217323      3.00540      63.9465 
0.000757357      4.32083      64.5024 
0.000787746     0.891964      70.3462 
0.000997653      2.77042      72.3499 
0.00228087     0.512640     -110.556 
0.00126876      1.82779      66.8014 
0.000905575      4.62467      67.0942 
0.00129727      5.04571      64.6538 
0.000926742      4.11602      59.3227 
0.00304336     0.268328      116.565 
0.000197758      2.60776      66.9745 
0.00133976      3.30436      60.6422 
0.000375549      1.43122      56.9761 
0.000193249      2.76391      62.8787 
0.000375031      3.52165      66.9296 
0.000294754      3.09742      68.4047 
0.000757730      2.58488      68.1986 
0.00188065      3.81413      70.7100 
0.00154867      3.13209      69.8293 
0.000184697      2.71065      62.3005 
0.000364463      5.01781      63.7413 
0.000179166      4.29535      65.2249 
0.000315901      2.84478      62.3540 
0.000176716      2.55265      66.4477 
0.00140294     0.948683      71.5651 
0.00261630     0.323110      111.801 
0.000332543      3.26546      69.5672 
0.000476710      4.34990      65.5560 
0.00135944     0.268328     -63.4349 
0.000623954      2.79177      61.7826 
0.00128972      2.20291      60.6422 
0.000894028      2.82765      72.7185 
0.000783115      4.06453      58.8912 
0.000587832      4.96588      61.8868 
0.00131406      5.10000      64.9424 
0.00121033      2.52927      67.6938 
0.000864534      1.86097      69.2277 
0.000153569      3.89076      70.1679 
0.00118660      4.60165      67.7824 
0.000539018      3.32175      69.9285 
0.00104061     0.566039      57.9946 
0.000737893      1.80499      68.5523 
0.000144581      1.51433      56.3099 
0.000488608      2.87312      61.2940 
0.000143757      3.54559      66.0375 
0.00188016      4.99444      61.2797 
0.000375665      4.22308      67.4428 
0.00178707      4.09585      58.1726 
0.000627271      1.41605      53.6156 
0.000798973      3.25220      60.1240 
0.000747908      1.00578      72.6460 
0.00101195      2.82064      60.7086 
0.000333156      3.87081      71.0033 
0.000241403      1.56461      57.5288 
0.000571486      3.18848      70.2011 
0.00100720      3.79473      71.5651 
0.000460611      3.33419      59.7436 
0.000237180      4.14478      67.8906 
0.000462833      3.57038      65.1576 
0.00176289      5.15442      65.2249 
0.00112174     0.323110     -68.1986 
0.000391733      4.34700      63.7886 
0.00133999      2.15081      59.8586 
0.000675174      2.81041      73.8866 
0.00193232      1.84054      70.9744 
0.000113783      2.56320      69.4440 
0.000323722      1.36821      52.1250 
0.000532408     0.989545      75.9638 
0.000564154      3.30164      70.9065 
0.000408007      4.65725      68.0615 
0.000816689     0.600000      53.1301 
0.000602382      4.12257      68.6631 
0.000941999      2.50711      68.9625 
0.00156488     0.349857      120.964 
0.000196866      4.40091      64.1336 
0.000730448      1.04785      76.7595 
0.000198169      1.59762      55.7131 
9.95783e-05      3.24500      70.5600 
0.000729816      1.40584      50.1944 
0.000631688      3.59600      64.2900 
0.000301776      4.40336      70.0836 
0.000527534     0.349857     -59.0362 
0.000829432      4.66189      58.1509 
0.000756192      3.77619      72.4287 
0.000834583      3.28250      59.2159 
0.000967289      5.02354      60.6795 
9.28787e-05      1.63218      53.9726 
0.000330898      2.95466      60.8324 
9.17155e-05      4.45982      70.3462 
0.000175738      2.64613      57.0306 
0.000364826      4.71296      68.3340 
0.000166937      1.60997      63.4349 
0.000261776      4.38329      70.8210 
0.000167795      1.66817      52.3058 
0.000164610      4.42741      63.4349 
0.000396676      4.44000      71.0754 
0.000142381      3.07584      69.4440 
0.000189144      4.12781      57.4649 
0.000381914     0.402492     -63.4349 
8.15853e-05      4.04500      69.1455 
0.00130018      1.10635      77.4712 
0.000246664      2.62975      55.2222 
0.000763488      4.07735      57.0115 
7.88585e-05      1.62111      51.0090 
0.000493749     0.626418      73.3008 
0.000338736      4.76877      68.6002 
0.000343343      3.35839      71.2414 
0.000422105      1.70552      50.7106 
0.000450305      2.09914      59.0362 
0.000178521      1.36029      48.5763 
0.000135876      3.33958      72.2161 
0.000329598     0.566039     -122.005 
0.000210030      3.75851      73.3008 
0.000146972      3.24777      64.8552 
0.000279317      3.22273      65.8209 
0.000281232      3.62491      65.5560 
0.000137360      4.75062      62.1403 
0.000267009      4.27055      65.9558 
0.000262463      4.80375      62.4748 
0.000261646      2.73905      61.1892 
0.000253047      1.42239      62.3540 
0.000126204      4.59970      59.4208 
0.000245051      2.04793      58.1726 
0.000125090      4.68000      67.3801 
0.000123973      3.37817      70.2777 
0.000123631      4.93789      62.5009 
0.000123466     0.742159      75.9638 
0.000241459      2.61396      58.1340 
0.000122433      4.24646      66.6951 
0.000121852      1.13842      71.5651 
0.000353303      4.57930      58.3925 
0.000121172      3.11307      62.4472 
0.000120268      1.45245      51.7098 
0.000234675      3.68109      70.9744 
0.000119684     0.684105      74.7449 
0.000543425      1.12089      74.4759 
0.000117346      4.73544      67.6594 
0.000116919      3.17547      67.7965 
0.000115668      1.84835      54.2461 
0.000225960      5.01888      62.2096 
0.000215889      2.59600      56.3099 
0.000112903      2.97893      62.4027 
0.000112756      5.07169      64.0412 
0.000110847      4.25620      68.4986 
0.000210556      3.41526      71.5651 
0.000599104      4.61103      57.7575 
0.000109341      1.71604      53.5308 
0.000108788      2.64068      68.6821 
0.000107607      3.22273      61.0490 
0.000634305     0.611882      78.6901 
0.000106676      2.54629      55.5610 
0.000207910      5.12570      64.3348 
0.000208672      3.73786      71.2742 
0.000102865      1.98091      54.8658 
9.89315e-05      3.17036      60.5241 
0.000272716      1.40071      46.7357 
0.000277785      5.17985      64.6223 
9.48956e-05      1.17881      75.2564 
0.000266597      2.58070      54.4623 
9.14734e-05      3.71903      72.1497 
8.75503e-05      1.83663      51.6325 
0.000337899      6.22729      64.9164 
0.000533934      4.64332      57.1313 
8.46927e-05      4.94190      60.9454 
0.000387658      4.80337      69.5277 
8.41506e-05     0.364966     -80.5377 
0.000421270     0.424264     -81.8699 
0.000156388      3.20031      59.5889 
0.000231142      1.35764      45.0000 
0.000783177      6.30714      64.6538 
7.92054e-05      2.56811      52.5946 
0.000688431      4.11033      56.3099 
0.000136614      5.20895      65.5014 
0.00155488      8.10511      64.5731 
7.77929e-05      1.78997      50.4403 
7.71085e-05      4.20043      68.1986 
0.000214293      3.39676      72.5252 
0.000290887     0.420000     -90.0000 
0.000426200      4.42090      71.8110 
7.47978e-05      2.01604      53.4711 
0.000531126      2.60500      51.5463 
7.17602e-05      4.36394      71.5651 
0.000254236      1.74413      49.1849 
7.10004e-05      5.18124      61.6543 
0.000322094      1.31590      43.1524 
0.000187160      4.88954      60.6039 
0.000201965     0.494773     -104.036 
0.000255049      4.85963      69.7751 
6.72958e-05      6.27911      63.9246 
0.000121563      5.20999      61.0736 
6.43554e-05      6.30571      63.4349 
0.000464957      4.62623      56.1038 
6.34168e-05     0.729931      80.5377 
0.000297820      7.37902      63.4349 
0.000117064      2.00529      51.0725 
0.000571242      1.16499      78.1113 
6.12521e-05      5.23412      61.9661 
0.000170705      3.74171      74.1808 
0.000118270      4.80787      60.8759 
0.000117294      6.33277      62.9494 
0.000157373     0.670820      79.6952 
0.000168496      6.28169      65.1484 
5.87557e-05      2.90241      60.2551 
0.000583794      4.10112      69.4440 
0.000253333      3.37923      73.4956 
0.000164251      1.32136      39.4725 
0.000255948      4.83921      70.4417 
0.000337827      2.59669      49.6859 
5.49766e-05     0.379473     -71.5651 
0.000328098      1.87926      73.3008 
0.000155799      6.36028      62.4680 
0.000283458      3.23110      58.6713 
5.42830e-05      7.32541      63.2251 
5.26950e-05      7.40605      63.0198 
0.000284295     0.436807     -74.0546 
9.90217e-05      2.85047      59.6568 
5.22688e-05      1.40456      70.0169 
5.21569e-05      3.51551      62.5603 
0.000100408      5.26258      61.3895 
9.33200e-05      4.67615      56.5138 
0.000148155      1.69918      47.8624 
0.000405068      7.71017      60.6422 
0.000194522      6.25671      65.6470 
5.10473e-05     0.789177      81.2538 
0.000148000      8.37704      65.4542 
5.06298e-05      5.95785      62.4027 
0.000145443      1.28406      37.4054 
0.000188202      7.65206      65.4445 
0.000171758      4.83735      60.2551 
5.01636e-05      7.27189      63.0121 
9.49209e-05      3.79947      74.4275 
0.000144483      5.90474      62.1330 
0.000172893      2.75282      73.5400 
0.000211772      4.40254      72.5528 
8.65817e-05     0.848528      81.8699 
0.000133994      7.21848      62.7960 
0.000424705      8.43165      65.6235 
0.000729231      4.06054      55.8403 
0.000118638      1.48189      68.6294 
0.000411940      4.89579      70.6768 
0.000445556      6.33533      61.7360 
0.000257634      11.1975      65.6323 
0.000169283      1.24852      35.2176 
0.000317973      8.07708      64.0060 
0.000220726      2.33384      43.9584 
0.000395429      3.32175      73.2016 
0.000466185      6.31142      65.8716 
0.000126930      5.93303      61.6208 
0.000120392      5.23927      60.4993 
0.000445524      1.65517      46.4688 
4.32470e-05      2.71330      71.9657 
0.000123471      11.3685      66.6823 
4.18568e-05      7.62732      65.8545 
0.000355455     0.456946     -66.8014 
4.09156e-05      1.09490      80.5377 
0.000202396      3.78381      75.3027 
0.000478823      4.65996      55.4915 
0.000360380      7.68211      66.0375 
0.00107587      8.58147      69.5377 
0.000150950      7.16517      62.5767 
0.000588699      11.1429      65.5050 
0.000251599      9.69292      65.4973 
0.000369465      3.26270      57.7712 
0.000459311      11.4237      66.8014 
0.000413469      5.88031      61.3429 
0.000766006      1.26570      31.4296 
0.000396712      1.92094      75.5297 
0.000771022      7.73977      60.2551 
0.000357852     0.600000     -126.870 
0.000398675      4.45982      72.7839 
0.000373293      10.8673      63.4349 
0.000175570      8.93859      64.9831 
0.000387626      2.69533      73.1786 
9.93210e-05      2.74758      58.3925 
3.60817e-05     0.722496      85.2364 
0.000485100     0.593970     -135.000 
9.05993e-05      3.54356      61.6992 
0.000386273      7.19300      62.1524 
0.000220409      10.4682      64.9037 
0.000125189      1.15412      81.0274 
3.34099e-05      5.26908      59.9314 
3.31798e-05     0.662722      84.8056 
0.000151501      9.66354      65.0261 
0.000110201      5.21724      59.6013 
0.000308870      9.01838      64.7989 
0.000229366      1.22376      78.6901 
8.49835e-05      4.75554      60.5241 
0.000337856      9.88763      66.3905 
0.000155002     0.782304      85.6013 
0.000295013      4.87627      71.3421 
0.000653911     0.483735     -60.2551 
7.44417e-05      2.59946      71.1468 
0.000184835      2.37739      42.9546 
0.000375756      6.28713      66.3706 
0.000220961      10.8408      63.0095 
5.09818e-05      2.65224      52.3524 
8.86665e-05      9.63836      65.3494 
0.000123546      10.3952      68.3214 
0.000183918     0.216333      123.690 
0.000431705      11.4788      66.9194 
0.000252667      2.67925      55.9541 
8.55202e-05      3.49085      61.2324 
0.000354827     0.637809      41.1859 
0.000242560      4.70952      55.9050 
4.71702e-05      5.85700      60.5463 
2.40440e-05      3.76903      76.1850 
0.000305049      9.60918      64.8750 
6.14530e-05      5.24786      59.0362 
6.65731e-05      8.49143      60.3555 
0.000157549      1.90683      77.2756 
0.000302504     0.637809     -138.814 
0.000230988      3.82732      76.3995 
0.000135901      5.27079      67.2296 
0.000258077      10.4510      68.4429 
0.000103236      5.99189      55.1960 
3.00689e-05      4.58873      62.7649 
0.000195308      20.5730      65.9018 
0.000555598    0.0848528      135.000 
0.000364371      10.8681      62.7276 
9.85191e-05      7.71298      66.6258 
4.55574e-05      8.57328      60.2054 
2.10389e-05      12.0222      62.6676 
7.46935e-05      1.46110      70.8210 
4.10919e-05      11.9297      60.4696 
5.76620e-05      8.40707      65.9960 
0.000111012     0.842140      85.9144 
0.000313305      8.52127      60.0049 
0.000135238      1.69706      45.0000 
0.000188387      12.0755      62.7984 
0.000176173      6.36396      61.2602 
0.000150350      6.34214      66.5879 
0.000174831      1.21342      81.4692 
0.000183355      3.30491      74.1975 
0.000333995      11.9594      60.2195 
0.000213292      19.4679      67.1492 
0.000180951      4.93315      71.5651 
0.000262893      1.96540      77.6609 
0.000109120      18.8550      65.9635 
0.000311813      2.63795      72.8015 
0.000324819      4.09453      55.1455 
0.000323817      5.97746      54.3955 
0.000233989     0.300000      126.870 
8.97776e-05      4.78535      59.8987 
1.81083e-05      9.09826      64.6179 
0.000278465      2.38193      40.9144 
3.44068e-05      10.3385      61.2038 
0.000106309      4.01103      55.3591 
3.48179e-05      4.51717      73.0092 
0.000202103      21.2258      64.0144 
8.27267e-05      7.74465      67.2094 
1.75932e-05      2.66443      54.1623 
6.68106e-05      9.95078      59.5695 
3.03865e-05      21.1719      63.9433 
8.27114e-05      10.3911      61.3631 
0.000192454      20.5976      65.7494 
0.000202625      12.1031      62.5457 
0.000202187      18.8002      65.8890 
4.77003e-05      8.48634      65.7907 
1.62070e-05      4.51278      54.1967 
0.000122351      4.44243      73.5231 
0.000121627      13.6362      65.0136 
0.000195473      3.43890      47.1211 
3.05026e-05     0.566039     -57.9946 
1.57196e-05      5.27898      58.4778 
0.000179444      9.89909      59.3936 
7.16609e-05      12.4505      63.6819 
1.51330e-05      11.0082      67.9086 
6.75269e-05      9.23064      63.7681 
0.000172509      7.77712      67.7882 
0.000127573      4.75933      56.3099 
0.000284668      5.87694      62.6501 
