! Center RA: 12 29 06.69973,  Dec: +02 03 08.59828 (2000.0)
! Tentative model.
! Flux (Jy) Radius (mas)  Theta (deg)  Major FWHM (mas)  Axial ratio   Phi (deg) T \
! Freq (Hz)     SpecIndex
-0.00198351      16.5787     -122.386 
-0.00114053      16.6217     -122.619 
-0.00269412      16.8078     -121.572 
-0.00181888      16.5112     -122.535 
-0.00267679      16.0272     -121.945 
-0.00254780      16.4438     -122.685 
-0.00342614      16.9179     -121.661 
-0.000906354      16.5544     -122.769 
-0.00156246      15.9850     -121.701 
-0.00225224      15.8749     -121.608 
-0.00468607      16.6296     -121.626 
-0.00153928      16.9860     -121.519 
-0.00152729      16.4872     -122.919 
-0.00403468      17.0961     -121.608 
-0.000722865      16.3766     -122.836 
-0.000717912      16.6978     -121.482 
-0.000903412      15.8068     -121.759 
-0.00136155      16.4201     -123.071 
-0.000672812      15.7649     -121.512 
-0.000649434      16.0114     -121.307 
-0.000670324      15.7389     -121.913 
-0.000632451      16.5079     -123.536 
-0.000622071      16.0798     -121.159 
-0.00121263      14.8440     -123.347 
-0.000613144      16.7523     -123.311 
-0.000609065      15.6710     -122.067 
-0.00105472      14.7333     -123.259 
-0.00118564      17.1226     -121.239 
-0.000599217      16.0386     -120.915 
-0.000589269      16.4413     -123.690 
-0.00114028      14.9686     -121.226 
-0.000576882      16.8631     -123.389 
-0.00215247      14.6664     -123.430 
-0.000572306      16.1072     -120.769 
-0.000568360      15.6549     -121.416 
-0.00110595      16.4195     -124.077 
-0.00162920      17.1911     -121.101 
-0.00264874      11.4151     -121.239 
-0.000549219      16.9517     -123.840 
-0.000943696      15.0657     -123.521 
-0.000542724      15.7096     -120.613 
-0.00200478      14.9959     -120.806 
-0.000532914      16.5463     -121.154 
-0.000528320      15.9569     -120.422 
-0.00102175      14.5556     -123.341 
-0.00247628      22.4874     -120.579 
-0.00102704      17.0627     -123.914 
-0.000521900      15.6426     -123.528 
-0.00148390      16.3533     -124.234 
-0.00132972      15.6408     -120.763 
-0.00149884      11.3738     -120.895 
-0.000976385      14.7773     -123.518 
-0.00147245      17.2596     -120.964 
-0.00283185      10.5987     -118.887 
-0.000499807      15.1325     -123.354 
-0.000499522      16.5050     -120.916 
-0.00144599      22.3778     -120.507 
-0.000491157      15.9166     -120.174 
-0.000489307      15.5095     -123.854 
-0.000482161      17.1075     -124.136 
-0.00176417      22.1994     -120.539 
-0.00177277      16.4645     -124.308 
-0.000475558      14.2234     -123.064 
-0.000474653      15.6690     -120.362 
-0.000925243      15.6205     -123.934 
-0.000469938      11.6350     -121.504 
-0.00263883      22.0899     -120.466 
-0.000913873      17.8249     -121.978 
-0.000900479      16.5329     -120.536 
-0.00132141      22.5970     -120.651 
-0.000908935      11.2641     -120.754 
-0.000460489      17.1737     -123.986 
-0.000457926      17.7827     -121.759 
-0.00132092      14.1127     -122.969 
-0.00210089      15.0240     -120.388 
-0.000898497      11.7872     -121.964 
-0.00175661      21.8025     -121.649 
-0.000452544      17.2186     -120.735 
-0.000450539      15.8765     -119.924 
-0.000443276      14.9549     -123.435 
-0.00135265      10.0335     -142.125 
-0.000645354      15.6000     -120.510 
-0.00153505      17.2186     -124.207 
-0.000434929      15.5542     -124.099 
-0.000434158      17.2874     -120.600 
-0.000853735      11.8974     -122.087 
-0.00121203      10.5287     -119.097 
-0.000852750      17.8508     -121.624 
-0.000844612      11.3052     -121.103 
-0.000427413      14.6225     -123.168 
-0.000426682      15.8072     -120.069 
-0.000422313      10.6376     -119.264 
-0.00159557      15.6653     -124.177 
-0.000799937      17.1525     -124.357 
-0.000826861      21.6506     -121.399 
-0.000822094      17.3970     -120.693 
-0.00369954      9.97052     -141.843 
-0.000413281      11.9090     -120.700 
-0.000765190      15.6979     -119.962 
-0.00118984      10.5679     -119.476 
-0.000411619      14.5789     -122.905 
-0.000409876      17.9189     -121.490 
-0.000795562      14.0021     -122.873 
-0.00405358      22.5563     -120.476 
-0.000406101      11.3468     -121.449 
-0.000777830      16.5756     -124.380 
-0.00182219      21.9126     -121.717 
-0.00337344      12.8302     -122.005 
-0.000790896      15.7673     -119.817 
-0.000401512      12.0506     -122.530 
-0.00213276      22.1305     -120.644 
-0.000771147      17.9293     -122.981 
-0.00188140      21.5824     -121.510 
-0.000396516      16.4924     -120.296 
-0.000395294      17.9872     -121.357 
-0.000394875      11.8727     -122.619 
-0.000394136      16.3984     -124.465 
-0.000392476      14.4683     -122.811 
-0.00263655      22.0617     -120.750 
-0.00110352      17.3563     -120.466 
-0.000389149      12.2285     -122.442 
-0.000825072      17.2418     -122.879 
-0.00422211      9.92129     -142.206 
-0.000762850      18.7577     -121.928 
-0.000384177      11.2786     -121.661 
-0.00882610      1.44222     -146.310 
-0.000742508      18.0972     -121.442 
-0.000397180      11.9160     -122.943 
-0.00382884      14.9551     -120.543 
-0.000378668      11.1737     -119.134 
-0.000744307      14.4251     -122.544 
-0.000732508      17.4659     -120.559 
-0.000724364      13.7136     -122.856 
-0.000373924      12.2044     -122.961 
-0.00139803      15.6287     -120.109 
-0.00105974      18.2072     -121.525 
-0.000369621      11.8489     -123.154 
-0.000368275      11.1350     -118.775 
-0.000728621      10.4983     -119.691 
-0.000366236      16.3325     -124.624 
-0.000721261      18.8002     -122.135 
-0.000701814      15.0217     -123.267 
-0.000382320      11.9597     -123.265 
 0.0104376     0.486621      9.46232 
-0.00104374      11.0264     -118.610 
-0.000706484      15.5992     -124.342 
-0.000359179      16.4817     -119.676 
-0.000695614      12.3151     -123.071 
-0.000355415      11.4064     -122.687 
-0.000354830      14.3822     -122.276 
-0.000352864      11.7883     -119.697 
-0.000687351      16.6210     -124.608 
-0.00138781      22.6659     -120.548 
-0.000350775      17.2401     -123.838 
-0.000747139      11.8929     -123.476 
-0.00108508      21.9388     -121.430 
-0.000687089      10.4589     -119.310 
-0.000684375      18.8680     -122.005 
-0.00101244      21.5142     -121.621 
-0.000344677      14.3146     -122.447 
-0.000672774      12.0037     -123.584 
-0.000343739      17.9730     -123.195 
-0.000342660      11.3391     -122.905 
-0.000341411      16.2668     -124.784 
-0.000340953      16.4423     -119.434 
-0.000755180      21.9656     -121.143 
-0.000335537      14.3397     -122.005 
-0.000986748      17.4253     -120.332 
-0.000335531      22.7754     -120.619 
-0.000965868      10.1272     -117.780 
-0.000331934      15.7104     -124.418 
-0.000331635      18.9782     -122.082 
-0.000649277      11.3828     -123.243 
-0.000638580      13.6704     -122.574 
-0.000609370      18.3854     -121.477 
-0.00117306      15.0530     -119.971 
-0.00127437      10.8968     -127.543 
-0.000937329      10.9883     -118.244 
-0.000326365      16.1554     -124.713 
-0.000325110      18.0169     -123.408 
-0.000636932      14.3655     -121.566 
-0.000937377      12.3589     -123.381 
-0.00153278      19.1140     -121.827 
-0.00124853      22.9260     -120.861 
-0.000630868      21.5563     -121.803 
-0.000320748      17.2848     -124.058 
-0.000320692      11.6792     -119.550 
-0.000635591      14.9272     -120.964 
-0.000926299      15.6444     -124.584 
-0.000319271      18.6899     -122.057 
-0.00170801      21.9806     -121.608 
-0.000913625      14.2974     -121.734 
-0.000317081      12.0482     -123.901 
-0.000317109      16.4031     -119.190 
-0.000316547      18.2235     -122.085 
-0.00189991      9.62829     -118.269 
-0.00537074      21.5307     -122.096 
-0.000905914      16.2011     -124.946 
-0.000311945      17.9061     -123.335 
-0.000311381      21.9930     -120.857 
-0.00119391      17.3851     -120.105 
-0.000310034      15.5887     -119.854 
-0.000308655      11.9372     -123.797 
-0.000307521      18.6649     -122.396 
-0.00117099      11.4268     -123.579 
-0.000306574      10.7012     -118.098 
-0.000306253      17.3066     -123.690 
-0.000304805      16.7779     -124.902 
-0.000576398      10.7878     -125.340 
-0.000304074      18.2491     -121.739 
-0.000593268      16.5120     -119.297 
-0.000883915      10.8826     -128.134 
-0.000592768      10.0902     -117.378 
-0.000589438      11.9819     -124.114 
-0.000298480      18.8617     -122.881 
-0.000854462      14.3238     -121.293 
-0.000296729      18.2177     -122.992 
-0.000295081      13.7379     -122.394 
-0.000819375      9.55791     -118.496 
-0.000294531      17.8393     -123.476 
-0.000564149      15.6581     -119.709 
-0.000292389      22.8850     -120.689 
-0.00160596      19.1820     -121.701 
-0.000573016      10.8074     -124.749 
-0.000432874      12.3822     -122.869 
-0.000288904      18.7511     -122.809 
-0.000288789      17.2891     -125.014 
-0.000288149      11.5311     -119.055 
-0.000838684      15.5787     -124.751 
0.00383004     0.644981     -97.1250 
-0.000566399      18.2849     -122.856 
-0.000378306      14.8587     -121.122 
-0.000285435      9.98238     -117.181 
-0.000284092      23.0357     -120.930 
-0.000283871      12.0930     -124.216 
-0.00107796      17.8835     -123.690 
-0.000282695      13.9588     -122.597 
-0.000282592      16.4730     -119.055 
-0.00272199      10.9322     -128.463 
-0.000281452      10.8800     -118.072 
-0.000279713      12.9405     -122.118 
-0.00285377      21.9547     -121.895 
-0.000781151      14.3922     -121.128 
-0.000277593      16.7996     -119.373 
-0.000277355      16.6009     -124.992 
-0.000277026      10.0829     -141.766 
-0.00106095      22.9947     -120.759 
-0.000276539      12.4031     -123.690 
-0.00128693      9.28138     -144.118 
-0.00138913      17.3451     -119.876 
-0.000274822      13.6275     -122.291 
-0.000529420      12.1381     -124.528 
-0.000532686      16.0897     -124.875 
-0.000794879      10.0536     -116.973 
-0.000525854      18.7946     -123.014 
-0.00549341      2.37453     -147.381 
-0.000273172      15.1335     -124.446 
-0.00199938      11.3603     -123.802 
-0.000905246      9.80906     -142.289 
-0.000532197      11.6399     -119.208 
-0.000270449      17.4176     -123.763 
-0.000784841      18.3955     -122.930 
-0.000268818      16.5818     -119.162 
-0.000781444      12.2041     -124.315 
-0.000266995      18.3437     -121.264 
-0.000266085      17.2236     -125.166 
-0.000519677      13.1871     -125.618 
-0.00119030      17.4543     -119.973 
-0.00161652      10.8343     -125.685 
-0.000984048      14.2824     -121.019 
-0.00101490      10.1326     -141.411 
-0.000264171      18.8383     -123.218 
-0.000264006      13.5849     -122.005 
-0.000515623      9.52000     -118.072 
-0.000263591      16.0384     -118.610 
-0.000263152      15.6900     -124.824 
-0.000629026      12.3814     -124.203 
-0.000509937      16.6907     -119.268 
-0.000259974      9.77605     -143.318 
-0.000971726      18.3722     -123.275 
-0.000260292      13.9835     -122.144 
-0.000257915      12.7880     -121.701 
-0.000256736      15.5130     -124.919 
-0.00143036      18.4391     -123.139 
-0.000254747      13.4326     -121.608 
0.000501377      2.00639      156.501 
-0.000496749      17.2698     -125.383 
-0.00249030      9.76033     -142.660 
-0.000491941      15.9298     -118.496 
-0.000250756      15.0223     -124.367 
-0.00214658      21.4630     -122.209 
-0.000484333      12.5263     -121.152 
-0.000248964      10.9507     -117.876 
-0.000687774      14.3510     -120.854 
-0.000248611      15.9784     -124.804 
-0.000480660      17.8170     -123.833 
-0.00104863      12.0269     -124.430 
-0.000247937      18.1926     -120.964 
-0.000247140      13.7630     -121.935 
-0.00200740      23.1044     -120.828 
-0.00160966      13.1692     -126.104 
-0.000246099      15.4016     -124.846 
-0.000933408      10.0176     -116.565 
-0.000698336      14.8862     -120.700 
-0.000365468      16.1086     -118.474 
0.00187339      1.93329      155.556 
-0.000242499      12.4579     -121.342 
-0.000241706      18.9052     -123.085 
-0.000476162      9.71201     -143.036 
-0.000240944      15.8014     -124.897 
-0.000240209      13.8733     -122.040 
-0.000239896      11.4880     -126.790 
-0.000471002      19.2242     -121.904 
-0.000462922      17.9280     -123.903 
-0.000238844      9.84033     -126.404 
-0.000237963      15.4475     -125.089 
-0.000772089      16.6517     -119.028 
-0.000236842      13.3909     -121.316 
-0.000660501      11.6011     -118.863 
-0.000235339      9.23887     -119.006 
-0.000685455      10.1827     -141.059 
-0.000683501      17.3163     -125.599 
-0.000687651      9.85787     -125.754 
-0.000233969      18.7419     -121.383 
-0.000233310      16.0242     -125.039 
-0.000674997      9.23472     -144.520 
-0.000384116      12.3153     -124.413 
-0.000452266      15.2471     -118.179 
-0.000231203      13.9411     -121.866 
-0.000858378      11.5211     -127.666 
-0.000230307      15.3360     -125.017 
-0.000451091      18.8822     -123.421 
-0.00111727      16.0002     -118.359 
-0.000448002      13.3495     -121.023 
-0.000449093      9.20035     -118.571 
-0.000227189      12.5679     -121.464 
-0.000428732      14.8175     -120.858 
-0.000433981      16.7584     -125.283 
-0.000224702      10.8426     -117.699 
-0.000224802      15.9128     -124.968 
-0.000653774      19.2921     -121.779 
-0.000839244      12.4997     -121.656 
-0.000987493      14.2413     -120.743 
-0.000221653      9.36034     -142.640 
-0.000221577      15.2246     -124.943 
-0.000221430      18.0419     -120.659 
-0.00201271      21.9293     -122.183 
-0.000622265      11.4050     -124.136 
-0.00179139      9.90483     -126.129 
-0.000792289      18.4829     -123.346 
-0.000886248      14.1726     -120.908 
-0.00156993      16.7605     -119.134 
-0.000217771      17.8617     -124.046 
-0.000628650      15.9587     -125.204 
-0.000802967      11.9157     -124.330 
-0.000216431      9.67603     -122.508 
-0.000606842      11.4724     -127.349 
-0.000214954      13.8991     -121.586 
-0.000424727      9.16236     -118.131 
-0.000214875      15.4936     -125.331 
-0.00103562      10.2450     -141.340 
-0.000214062      18.8518     -121.464 
-0.000214067      14.4608     -120.964 
-0.000408317      17.6396     -123.906 
-0.000213256      9.94609     -116.771 
-0.000212832      15.5723     -118.540 
-0.000923528      10.9199     -129.053 
-0.000382488      12.5419     -121.967 
-0.000461678      17.2513     -125.754 
-0.000210935      10.7346     -117.520 
-0.000923128      22.6253     -120.373 
-0.00115818      18.9931     -123.489 
-0.000210213      9.29688     -142.341 
-0.000209295      15.0676     -124.618 
-0.00275067      18.4162     -123.483 
-0.000410773      13.3084     -120.727 
-0.00215763      23.2141     -120.896 
-0.000208252      17.7823     -120.256 
-0.000207958      13.2000     -126.870 
-0.00395365      9.18851     -144.926 
-0.00178647      15.2095     -117.913 
-0.000896583      10.8994     -125.440 
-0.00640944      1.37637     -144.462 
-0.00118194      16.8694     -119.239 
-0.000206423      9.16899     -119.249 
-0.000422113      13.9673     -121.414 
-0.000271599      21.3708     -122.619 
-0.000595477      17.9728     -124.114 
-0.000205015      19.3344     -121.980 
-0.00119924      2.35287     -144.689 
-0.000581726      12.4477     -123.996 
-0.000203877      9.91032     -116.358 
-0.000394831      15.3821     -125.261 
-0.000627862      17.3054     -119.646 
-0.000203185      9.40910     -142.253 
-0.000202604      13.1522     -126.591 
-0.000391892      9.71926     -122.905 
-0.000384843      17.3629     -125.814 
0.00214029      2.40533      176.186 
-0.00132421      9.13017     -118.811 
-0.000354490      17.5237     -119.842 
-0.000199993      11.3842     -124.695 
-0.000199736      12.6098     -121.774 
-0.000199133      9.66147     -117.626 
-0.000603988      13.8573     -121.304 
-0.00176948      15.2802     -117.773 
-0.000197943      13.1845     -127.357 
-0.00119354      19.4023     -121.855 
-0.000197498      15.1132     -124.868 
-0.000196787      10.8056     -117.324 
-0.000196610      16.6932     -125.442 
-0.000196270      18.0012     -120.440 
-0.000521137      12.5169     -122.471 
-0.00172581      16.0706     -118.223 
-0.000205292      13.2397     -120.904 
-0.000736454      9.34597     -141.953 
-0.000194425      16.0702     -125.272 
-0.000780618      21.2362     -122.852 
-0.000470791      14.7489     -121.017 
-0.000381889      13.2165     -126.384 
-0.00178937      9.98206     -116.154 
-0.000191885      10.8697     -128.726 
-0.000705725      22.3090     -120.611 
-0.00119542      10.2331     -140.711 
-0.000190335      18.8102     -121.256 
-0.000306830      17.1963     -119.547 
-0.000374069      13.3367     -120.256 
-0.00237883      14.7220     -121.444 
-0.000360391      17.6329     -119.938 
-0.000256166      15.8283     -125.538 
-0.000666602      10.6979     -117.140 
-0.000185807      10.9822     -128.790 
-0.000359644      21.9244     -120.964 
-0.000185417      15.2706     -125.189 
-0.00100493      11.8045     -124.229 
-0.000359672      17.6843     -124.121 
-0.00122105      13.1699     -127.844 
-0.000184325      16.1166     -125.505 
-0.000680107      22.7348     -120.445 
-0.000183795      11.3185     -124.926 
-0.000183238      12.4851     -120.838 
-0.000521925      17.7422     -120.033 
-0.000565161      16.1790     -118.339 
-0.000181700      11.3459     -125.819 
-0.000345156      9.62464     -117.204 
-0.00133276      13.9257     -121.133 
-0.000793738      19.5125     -121.931 
-0.000180675      18.0839     -124.182 
-0.000180649      12.3548     -119.055 
-0.000180260      16.4514     -125.700 
-0.000353752      15.9399     -125.605 
-0.000407160      17.2359     -119.778 
-0.000347707      13.2274     -120.132 
-0.000177710      12.3361     -127.093 
-0.000506244      21.9971     -122.072 
-0.000177711      15.0019     -124.792 
-0.000176687      16.9164     -125.569 
-0.000372027      13.3283     -126.457 
-0.00107847      9.28310     -141.649 
-0.000175737      11.5072     -128.224 
-0.000175624      11.5627     -118.516 
-0.000502884      9.69618     -123.559 
-0.000661554      14.0629     -120.796 
-0.000174625      10.8074     -128.991 
-0.000174233      9.09189     -118.369 
-0.000439242      17.4099     -126.027 
-0.000173926      13.2677     -120.431 
-0.000173047      19.1039     -123.557 
-0.000172714      19.6227     -122.005 
-0.000341593      9.95221     -126.501 
-0.000171750      15.4284     -125.503 
-0.000252464      11.2342     -125.727 
-0.000721235      13.8159     -121.021 
-0.000333146      9.09927     -119.495 
-0.000170341      10.7453     -129.259 
-0.000323532      19.9963     -122.418 
-0.000335022      18.1290     -124.391 
-0.000504431      11.4713     -123.912 
-0.000169416      16.0515     -125.670 
-0.000169043      18.3709     -120.921 
-0.000472484      11.1877     -125.395 
-0.000167988      16.8048     -125.506 
-0.000167762      9.13893     -119.932 
-0.000622639      21.1690     -122.969 
-0.000637944      12.3161     -118.729 
-0.000464991      17.4145     -119.745 
-0.00111775      21.9521     -120.677 
-0.000166827      17.4746     -125.873 
-0.000324963      19.0373     -123.690 
-0.000473678      15.1591     -125.116 
-0.000335040      11.2576     -129.232 
-0.000633197      20.1068     -122.489 
-0.000165238      9.08801     -117.242 
-0.000484088      10.6328     -129.198 
-0.000907698      13.2966     -119.959 
-0.000792829      12.3366     -123.896 
-0.00145724      4.08705     -139.764 
-0.000163544      16.7397     -125.665 
