! Center RA: 04 33 11.09553,  Dec: +05 21 15.61921 (2000.0)
! Established model.
! Flux (Jy) Radius (mas)  Theta (deg)  Major FWHM (mas)  Axial ratio   Phi (deg) T \
! Freq (Hz)     SpecIndex
  0.242128      0.00000      0.00000 
  0.161585    0.0600000      90.0000 
 0.0797564    0.0848528      45.0000 
 0.0180375     0.134164     -116.565 
 0.0543880     0.189737     -108.435 
 0.0898664     0.134164      63.4349 
 0.0159926     0.216333     -123.690 
 0.0356288     0.268328     -116.565 
 0.0842878     0.247386     -104.036 
 0.0189566     0.189737      71.5651 
  0.183040     0.180000      90.0000 
 0.0724836     0.305941     -101.310 
 0.0410150     0.300000     -90.0000 
 0.0590624      1.35366     -102.804 
 0.0777579     0.240000      90.0000 
0.00614075     0.360000     -90.0000 
 0.0119616      1.36821     -105.255 
0.00877578     0.543323     -96.3402 
 0.0128674      1.31042     -105.945 
 0.0393621     0.611882     -101.310 
 0.0177770     0.240000     -90.0000 
0.00222298     0.180000     -90.0000 
0.00821589      1.29522     -103.392 
0.00968332     0.189737      108.435 
 0.0414226      2.61947     -110.095 
 0.0200758     0.684105     -105.255 
0.00183346      1.23693     -104.036 
 0.0126348      1.48432     -104.036 
0.00615269      1.17881     -104.744 
0.00176330     0.305941     -78.6901 
 0.0149712      1.12089     -105.524 
0.00479843     0.436807     -74.0546 
 0.0166301     0.169706     -135.000 
 0.0188397     0.379473     -71.5651 
0.00309952     0.758947     -108.435 
0.00154325     0.483735     -82.8750 
 0.0164499      1.54260     -103.496 
 0.0188622     0.780000     -112.620 
0.00602757      1.13842     -108.435 
 0.0110180      1.60100     -102.995 
0.00331963      1.16499     -101.889 
 0.0109293     0.216333     -146.310 
0.00476998      1.10309     -112.380 
0.00561181      1.27279     -98.1301 
 0.0135881     0.189737     -161.565 
0.00301810      2.56320     -110.556 
0.00202039      1.21342     -98.5308 
0.00565915      2.64068     -111.318 
0.00739359      1.67356     -104.534 
 0.0238667     0.300000      90.0000 
0.00185786      2.29652     -109.855 
0.00633077      1.04785     -113.629 
0.00912869      1.33222     -97.7652 
0.00820067      2.22000     -108.925 
 0.0124707      2.69666     -110.854 
0.00475221     0.702282     -109.983 
0.00379382      1.73170     -104.036 
0.00562081     0.424264     -81.8699 
0.000745663      1.80499     -105.422 
0.00185924      2.27684     -108.435 
0.00326034      1.86290     -104.931 
0.00306580      2.33384     -107.969 
0.00128578      1.39169     -97.4314 
0.00173174      2.14411     -107.928 
0.00238321      1.08167     -109.440 
0.00390274      1.52971     -101.310 
0.00384871      2.77431     -111.571 
0.00117855     0.364966     -80.5377 
0.00362705      1.02528     -110.556 
0.00921572     0.626418     -106.699 
0.00470251      1.92094     -104.470 
0.00338489      2.39098     -107.526 
0.00198255      1.45986     -99.4623 
0.00212199      2.83019     -111.125 
0.00102996     0.420000     -90.0000 
0.00185427      2.46658     -108.435 
0.000506007      1.10635     -102.529 
0.00366053      2.88624     -110.695 
0.00116708      1.09490     -99.4623 
0.00605935      3.60050     -113.575 
0.000903899      2.06891     -106.858 
0.00110064      1.15412     -98.9726 
0.000895586      1.06320     -106.390 
0.00833602     0.305941      101.310 
0.000435588      1.47092     -101.768 
0.000646228      2.92219     -109.179 
0.00362331      1.14630     -96.0090 
0.00307183      1.97909     -104.036 
0.00191000      2.94245     -110.283 
0.00302622      2.44826     -107.103 
0.000493306     0.553173     -102.529 
0.00108229     0.247386     -165.964 
0.000671173      1.20599     -95.7106 
0.000384696      2.52357     -108.004 
0.00222153     0.240000      180.000 
0.000959686      2.75282     -110.410 
0.00350754      2.99880     -109.885 
0.00187513      3.57693     -112.694 
0.00215355      1.89452     -100.954 
0.00237064      2.20127     -107.447 
0.00388582     0.646220     -111.801 
0.00104563     0.569210     -108.435 
0.00303590      3.33257     -113.334 
0.00143580      3.63235     -112.329 
0.000286867      2.12641     -106.390 
0.00145690      1.07331     -116.565 
0.000720234      3.07584     -110.556 
0.00128750     0.305941      168.690 
0.00520532     0.364966      80.5377 
0.000553364      3.68793     -111.975 
0.00212516      1.88404     -99.1623 
0.00162239      3.66590     -111.105 
0.000869192      2.37360     -106.144 
0.00119568      3.92759     -108.712 
0.000470929      2.25858     -106.991 
0.000364792      3.25386     -112.782 
0.00127487      3.38774     -112.932 
0.000235451      1.08665     -96.3402 
0.00138853      3.60999     -111.448 
0.00266434     0.323110      158.199 
0.000867079      4.00385     -109.250 
0.00104252      1.08167     -93.1798 
0.000428168      2.43130     -105.751 
0.000797681      2.71860     -112.036 
0.00320860      3.98447     -108.435 
0.00107292     0.360000      90.0000 
0.000205636      1.55769     -105.642 
0.000895128      2.97893     -108.800 
0.00190515      1.87542     -97.3524 
0.000383403      1.10145     -119.358 
0.000876945      1.50000     -106.260 
0.000186994      1.02176     -86.6335 
0.000185078      3.05529     -109.502 
0.000376785      1.08000     -90.0000 
0.000727863      1.13208     -122.005 
0.000349999      2.74168     -113.199 
0.00107246      3.30926     -112.380 
0.00100614      1.02703     -83.2902 
0.000648019      1.42618     -104.621 
0.000484801      4.06054     -108.970 
0.000293240      3.64472     -110.225 
0.00181021     0.349857      149.036 
0.000168207      1.08167     -86.8202 
0.000327610      2.41570     -104.381 
0.000638699      4.41235     -112.380 
0.000320408      2.76586     -114.341 
0.000997943      1.16499     -124.509 
0.000792492      1.86869     -95.5275 
0.000440804      2.79113     -115.463 
0.000151034      2.40150     -102.995 
0.000150500      1.81593     -97.5946 
0.000991613      1.03576     -79.9920 
0.000148287      2.96014     -107.700 
0.00158193      4.49079     -112.797 
0.000688926      1.44250     -106.928 
0.000143661      2.38872     -101.592 
0.000143298      3.71080     -112.834 
0.000536585      1.80898     -95.7106 
0.000393440      3.03579     -108.435 
0.000822455      2.81745     -116.565 
0.000574962      2.43647     -99.9262 
0.000527514     0.989545     -75.9638 
0.000435022      3.81035     -116.162 
0.000441900      6.84763     -114.319 
0.000288395      2.42685     -98.5308 
0.000125230      4.08044     -109.767 
0.000518134      3.36482     -111.991 
0.000124418      1.20000     -126.870 
0.000122816      6.96465     -112.810 
0.000443101      2.24018     -110.376 
0.000474525      2.18403     -110.925 
0.000675445      1.59424     -109.799 
0.000228331      2.16333     -109.440 
0.000225528      2.86559     -109.573 
0.000411250      1.27138     -109.290 
0.000221730      2.48910     -105.376 
0.000220715      1.84835     -103.134 
0.000218386      1.18186     -113.962 
0.000215358      2.26177     -111.801 
0.000209948      2.66308     -112.521 
0.000922323     0.670820     -116.565 
0.000207328      1.25284     -106.699 
0.000206827      3.72193     -110.772 
0.000392685      1.90683     -102.724 
0.000204738      2.46000     -102.680 
0.000487231      3.23110     -111.801 
0.000375444      3.89076     -109.832 
0.000392503      1.11606     -126.254 
0.000200143      1.53792     -110.556 
0.000382676     0.617738     -119.055 
0.000196967      4.35693     -112.681 
0.000196138      2.90303     -108.060 
0.000193278     0.536656     -116.565 
0.000548647      3.96772     -110.353 
0.000192260      2.50639     -101.041 
0.000553804      4.43554     -113.097 
0.000189989      2.73708     -116.003 
0.000188769      3.42053     -111.615 
0.000188657     0.402492     -116.565 
0.000549594      6.87255     -114.775 
0.000183944      2.49560     -99.6888 
0.000181772     0.349857     -120.964 
0.000181558      2.22971     -113.806 
0.000181383      3.83437     -110.136 
0.000510570      1.15256     -128.660 
0.000179172      2.76391     -117.121 
0.00168597     0.300000     -126.870 
0.000350063      7.04329     -113.070 
0.000511516      6.81812     -114.986 
0.000174468      3.20930     -110.807 
0.000171724      2.25460     -115.201 
0.000170118      3.58848     -110.556 
0.000168983      2.55476     -99.4623 
0.00109728      7.12208     -113.325 
0.00199374     0.254558     -135.000 
0.000323132     0.976729     -79.3803 
0.000323279      3.86476     -117.759 
0.000164733      1.42618     -112.249 
0.000164388      3.13209     -110.171 
0.000162196      1.95346     -100.620 
0.000915690      6.76379     -115.201 
0.000315286      3.51141     -109.983 
0.000315343      4.02403     -110.056 
0.000159208      2.28079     -116.565 
0.000308623      2.84478     -117.646 
0.000852888     0.590931     -113.962 
0.000309241      2.54558     -98.1301 
0.000450090     0.300000      143.130 
0.000153327      1.94330     -98.8807 
0.000668164      4.56946     -113.199 
0.000151694      1.37084     -113.199 
0.000295701      3.89307     -118.540 
0.000149442      2.28473     -119.932 
0.000293542      7.20100     -113.575 
0.000398046      4.12257     -111.337 
0.000146941      3.60500     -108.435 
0.000145326      2.53779     -96.7890 
0.000278112      1.19097     -130.914 
0.000280308      2.89807     -117.096 
0.000279955      7.40897     -114.905 
0.000141531      2.47823     -96.9530 
0.000767094      6.78955     -115.659 
0.000406210      3.58647     -107.526 
0.000140117      2.26416     -122.005 
0.00106738     0.339411      135.000 
0.000759817      3.92209     -119.310 
0.000137947      1.34164     -116.565 
0.000137635      2.66443     -97.7652 
0.000265245      7.48871     -115.128 
0.000623381      7.09854     -112.881 
0.000132712      2.29652     -123.275 
0.000810752      4.20043     -111.801 
0.000235735      6.73552     -115.880 
0.000376794      2.59738     -96.6325 
0.000818893      2.92588     -118.142 
0.000996902      4.62467     -112.906 
0.000127875      2.32998     -124.509 
0.000474681      1.04785     -76.7595 
0.000323657      4.10112     -110.556 
0.000126819      7.59753     -114.744 
0.000126549      1.31727     -120.069 
0.000367398      6.70955     -115.419 
0.000125362      3.51141     -106.887 
0.000698164     0.323110      111.801 
0.000123575      7.51439     -115.542 
0.000123083      2.47168     -95.5722 
0.000237770      1.23110     -133.025 
0.000349207      6.13909     -111.801 
0.000236301      7.65206     -114.555 
0.000119794      3.56887     -106.607 
0.000233690      2.31603     -126.573 
0.000118703     0.931450     -75.0686 
0.000118001      7.48655     -116.154 
0.000117735      1.36953     -118.811 
0.000115903      2.65699     -96.4831 
0.000224636      3.49445     -105.945 
0.000221799      6.34129     -110.493 
0.000113094      7.51319     -116.565 
0.000319268      2.53140     -95.4403 
0.000111636      1.50360     -118.610 
0.000416238      7.70667     -114.370 
0.00104562      3.95181     -120.069 
0.000215656      7.07542     -112.433 
0.000109293      3.27756     -113.749 
0.000109122      7.54021     -116.973 
0.000108774      2.72389     -97.5946 
0.000308839      1.27562     -131.186 
0.000617224      8.72067     -116.565 
0.000108059      2.26813     -127.476 
0.00150865      5.47712     -114.600 
0.000649291      1.86387     -93.6914 
0.000207440      6.11706     -111.280 
0.000105379     0.948683     -71.5651 
0.000482106      7.51439     -117.588 
0.000202060      3.60999     -105.422 
0.000561506      2.30512     -128.660 
0.000270425     0.891964     -70.3462 
0.000200542      7.05274     -111.982 
0.000101293      1.58518     -119.476 
0.000192774      1.27279     -135.000 
0.000341565      1.06320     -73.6105 
9.98371e-05      3.26435     -107.103 
0.000283875      6.76192     -116.338 
9.90424e-05      4.68000     -112.620 
0.000354112      6.35689     -109.290 
0.000194262      2.59114     -95.3145 
0.000450293      2.95466     -119.168 
0.000275551      6.06119     -111.485 
0.000454211      8.77437     -116.390 
9.40306e-05     0.816088     -72.8973 
0.000184235      7.03050     -111.529 
9.37789e-05      2.40674     -94.2892 
9.32461e-05      1.66709     -120.256 
9.30261e-05      3.36268     -105.524 
0.000265843      8.29347     -115.267 
9.11705e-05      7.76137     -114.187 
0.000571944      2.52642     -94.0856 
8.94813e-05      3.42053     -105.255 
8.86821e-05      1.10635     -77.4712 
8.84388e-05      1.61555     -121.329 
0.000405569     0.494773     -104.036 
8.70207e-05      3.74171     -105.819 
0.000170365      7.00871     -111.073 
0.000627787      6.55649     -119.615 
0.000238310      6.78876     -116.792 
8.59326e-05      3.30491     -105.803 
0.000232135      1.31590     -133.152 
0.000470852      7.54236     -117.992 
0.000163661     0.364966      99.4623 
8.45581e-05      7.78614     -114.590 
8.44706e-05      4.73544     -112.341 
0.000312549      8.82816     -116.217 
0.000429606      1.12089     -74.4759 
0.000456141      6.03947     -110.956 
0.000229764      1.32136     -129.472 
0.000162342      8.01264     -110.606 
0.000947840     0.424264      81.8699 
0.000629071      9.02497     -111.448 
8.12658e-05      8.39936     -115.833 
0.000160055      3.40523     -104.281 
8.08161e-05      1.69812     -122.005 
8.07595e-05      4.64835     -113.587 
0.000152485      2.34307     -129.806 
0.000614677      3.98221     -120.816 
0.000154940      6.98736     -110.614 
0.000292605      2.90241     -119.745 
7.82445e-05      7.96939     -116.372 
7.80841e-05      4.27855     -112.249 
7.80387e-05     0.758947     -71.5651 
7.79247e-05      8.47955     -116.021 
7.76566e-05      4.76877     -111.400 
7.69811e-05      3.35410     -116.565 
0.000342567      1.86097     -91.8476 
7.62347e-05      2.25858     -129.611 
7.54879e-05      2.58627     -93.9909 
7.52449e-05      7.73698     -113.782 
0.000427799      23.3446     -112.677 
0.000205506      4.59343     -113.886 
0.000211674     0.835703     -68.9625 
0.000144672      7.99172     -110.204 
0.000375761      1.73066     -123.690 
7.38710e-05      3.28907     -104.797 
7.35951e-05      8.42567     -116.200 
0.000143161      4.80337     -110.472 
0.000142341      1.17881     -75.2564 
7.28766e-05      7.99622     -116.757 
7.27272e-05      3.65262     -104.265 
0.000206867      6.96646     -110.152 
0.000200711      4.22308     -112.557 
0.000124179      2.86056     -99.6599 
0.000138710      6.39415     -108.605 
0.000281097      2.46293     -92.7927 
7.08461e-05      3.30055     -117.031 
0.000329298      8.50604     -116.384 
0.000313300     0.384187      141.340 
0.000369098      7.48943     -118.207 
0.000193339      4.30163     -112.989 
0.000374897      9.04708     -111.801 
0.000133860      8.02342     -117.140 
0.000314815      2.29730     -130.764 
6.78217e-05      7.57071     -118.393 
0.000128930      3.44935     -103.069 
0.000319899      8.85585     -115.697 
0.000481843      2.52286     -92.7263 
0.000288700      6.81601     -117.242 
0.000130886      7.97120     -109.799 
0.000608022      6.01827     -110.422 
0.000170166      23.3678     -112.812 
0.000248047      4.83921     -109.558 
0.000128931      3.38136     -117.474 
0.000482262      2.93264     -120.763 
0.000309088      23.4000     -112.620 
6.44354e-05      1.36029     -131.424 
6.37880e-05      7.64335     -112.135 
6.37789e-05      2.93019     -100.620 
0.000281210      9.10281     -111.661 
0.000180575      6.94602     -109.687 
0.000224444     0.913893     -66.8014 
0.000431440      6.60872     -119.358 
6.18697e-05      1.35764     -135.000 
0.000119310      7.89450     -109.537 
0.000226782      9.96668     -113.787 
0.000229185      6.37526     -108.094 
0.000330617     0.436807      74.0546 
0.000118940      8.05096     -117.520 
0.000116841      1.44250     -73.0725 
0.000332383      22.9431     -112.608 
0.000166548      4.06453     -121.109 
0.000173724      10.0216     -113.649 
0.000417791      8.53288     -116.745 
0.000593125      5.33022     -121.185 
5.85033e-05      3.63830     -103.349 
5.80810e-05      3.14356     -103.241 
5.76524e-05      3.40946     -118.369 
0.000108900     0.402492      153.435 
0.000372424      23.4554     -112.563 
0.000164991      7.51798     -118.610 
0.000100004      1.92094     -91.7899 
0.000160363      4.32541     -113.720 
5.62171e-05      1.36029     -138.576 
0.000681906      16.3963     -115.815 
0.000164132      10.0528     -113.199 
0.000211350      8.07886     -117.897 
0.000163794      23.5434     -112.317 
0.000161772      7.00254     -109.522 
5.52205e-05      3.37763     -102.308 
0.000150173      4.87627     -108.658 
0.000255439      7.87464     -109.125 
0.000160193      1.46110     -70.8210 
0.000709720      1.76465     -125.311 
5.37860e-05      2.38193     -130.914 
5.36776e-05      3.71079     -104.036 
5.35342e-05     0.543323     -83.6598 
0.000105782      17.2833     -115.498 
0.000195414      9.12513     -112.011 
0.000103708      3.43837     -119.249 
5.30287e-05      2.98918     -100.408 
0.000280107      16.4764     -115.912 
5.25829e-05      23.4231     -112.755 
0.000101832     0.852760     -140.711 
5.23188e-05      22.8646     -112.527 
0.000781119      10.1080     -113.065 
0.000389194      23.5763     -112.126 
0.000827310      16.8297     -115.103 
9.99958e-05      2.25220     -131.760 
5.16186e-05     0.780000     -67.3801 
0.000141025      6.89687     -117.457 
0.000184764      1.36821     -142.125 
5.13491e-05      4.27055     -114.044 
0.000236064      17.2576     -115.318 
9.81712e-05      3.93080     -121.264 
0.000587059      1.51789     -71.5651 
0.000190550      6.98272     -109.058 
5.03057e-05      3.13037     -102.171 
0.000269951      9.93630     -114.244 
5.01411e-05     0.969330     -68.1986 
5.00485e-05      7.61244     -110.292 
0.000277024      22.8417     -112.388 
0.000143258      6.43232     -107.928 
0.000510336      4.81946     -108.886 
0.000228736      9.24312     -119.560 
4.96768e-05      23.2893     -112.733 
0.000273111      7.43661     -118.426 
0.000217707      4.01328     -121.551 
0.000256266     0.626418     -73.3008 
0.000344558     0.432666      146.310 
4.87790e-05      3.52011     -119.624 
0.000181509      8.61350     -116.922 
0.000392849     0.512640      69.4440 
0.000137314      3.05941     -101.310 
0.000519476      8.13194     -117.699 
0.000136048     0.900000     -143.130 
4.78194e-05      3.69670     -103.134 
0.000179686      23.2339     -112.791 
0.000136104      12.1035     -115.549 
0.000310135      4.29535     -114.775 
0.000173918      17.2864     -115.053 
0.000998675      11.4715     -113.749 
4.65191e-05      8.83387     -114.476 
4.65104e-05      12.1295     -115.805 
4.63904e-05      4.85741     -107.987 
4.62980e-05      9.14779     -112.360 
0.000281313      1.02528     -69.4440 
4.62541e-05      7.79838     -108.853 
0.000131080      3.55015     -120.466 
8.91060e-05      2.33692     -131.878 
0.000232984      9.93177     -115.017 
4.52697e-05      7.68492     -109.142 
4.51138e-05      9.44652     -115.589 
4.49519e-05     0.553173     -77.4712 
0.000255649      23.1001     -112.769 
0.000525734      22.7150     -109.440 
0.000284605      7.85519     -108.712 
0.000190710      12.1835     -115.682 
4.44404e-05      23.5989     -112.261 
4.43287e-05      3.17717     -100.886 
0.000126257      5.99760     -109.885 
0.000326219      9.27286     -119.883 
0.000238703      23.6319     -112.072 
4.35131e-05      9.47259     -115.916 
4.32932e-05      3.62491     -102.426 
0.000285296      6.41411     -107.418 
0.000195711      6.96336     -108.591 
0.000179026      22.7716     -109.390 
0.000500957      3.71467     -121.122 
0.000122710      23.9544     -114.254 
4.20987e-05      7.35532     -118.237 
0.000118014      2.46073     -91.3972 
0.000117303      7.66545     -108.719 
0.000218566      5.37360     -106.209 
