! Center RA: 18 00 45.68390,  Dec: +78 28 04.01838 (2000.0)
! Established model.
! Flux (Jy) Radius (mas)  Theta (deg)  Major FWHM (mas)  Axial ratio   Phi (deg) T \
! Freq (Hz)     SpecIndex
   1.37410      0.00000      0.00000 
 0.0351174    0.0400000      90.0000 
 0.0500184    0.0565685      135.000 
0.00752120     0.215407     -68.1986 
 0.0137860     0.252982     -71.5651 
 0.0229212    0.0894427      116.565 
 0.0152368     0.291204     -74.0546 
 0.0110916      1.32242     -86.5318 
 0.0352967     0.126491      108.435 
 0.0250020      1.36059     -88.3153 
0.00541110     0.322490     -82.8750 
 0.0104478     0.329848     -75.9638 
0.00918804     0.855102     -79.2157 
0.00720142     0.362215     -83.6598 
0.00844963      1.13772     -79.8753 
0.00227124     0.256125     -51.3402 
0.00216037     0.256125     -38.6598 
0.00418974      1.40057     -88.3634 
0.00794729     0.815843     -78.6901 
0.00777958     0.233238     -30.9638 
0.00965173     0.144222      123.690 
0.00217762     0.360000     -90.0000 
 0.0160021      1.44000     -90.0000 
0.00196711      1.40000     -90.0000 
0.00586990     0.400000     -90.0000 
 0.0115474      1.14543     -77.9052 
0.00805332     0.776660     -78.1113 
0.00486154     0.164924      104.036 
 0.0208824     0.268328     -26.5651 
0.00339682     0.169706      135.000 
0.00169049     0.362215     -96.3402 
0.00162846     0.178885      153.435 
0.00748210     0.401995     -95.7106 
0.00155981     0.200000      180.000 
 0.0150663      1.48000     -90.0000 
0.00153123     0.769415     -81.0274 
0.00660821     0.252982     -161.565 
0.00792532     0.729931     -80.5377 
0.00284218     0.164924      75.9638 
0.00141842      1.18457     -78.3106 
0.00526461     0.243310     -170.538 
 0.0107879      1.19331     -76.4296 
0.00737922     0.200000      90.0000 
0.00872856     0.407922     -101.310 
0.00557456      1.52000     -90.0000 
0.00111029     0.724431     -83.6598 
0.00110541     0.240000      180.000 
0.00211332     0.268328     -153.435 
0.00107825     0.785875     -75.2564 
0.00208804     0.203961      78.6901 
0.00294520     0.226274      135.000 
0.00295699     0.760000     -90.0000 
0.00669348     0.304631     -23.1986 
0.00482695      1.59248     -78.4078 
0.00481061      1.52053     -91.5074 
0.00100834     0.796994     -72.4744 
0.00482865     0.288444     -146.310 
0.00684677      1.20333     -74.5778 
0.00595935     0.215407      68.1986 
0.00182657     0.243310      170.538 
0.00335107     0.809938     -69.7751 
0.00337571      1.56051     -91.4688 
0.00171083     0.761052     -93.0128 
 0.0100703     0.322490     -29.7449 
0.00691265      1.63169     -78.6901 
0.00333410     0.233238      120.964 
0.00235121      1.24000     -90.0000 
0.00359961     0.282843     -171.870 
0.000781785     0.800999     -92.8624 
0.00149499      1.60050     -91.4321 
0.00812158     0.291204     -164.055 
0.00376998     0.803990     -95.7106 
0.00195261     0.441814     -95.1944 
0.00303806     0.824621     -67.1663 
0.00268467      1.60200     -92.8624 
0.00359625     0.233238      59.0362 
0.00220950      1.28062     -91.7899 
0.00306596      1.17644     -72.1811 
0.00298279     0.312410     -140.194 
0.00382908     0.256125      128.660 
0.00356266      1.21458     -72.7585 
0.00122593     0.243310      80.5377 
 0.0145028      1.64000     -77.3196 
 0.0110353      1.24065     -91.8476 
0.00436722      1.64195     -92.7927 
0.00104060     0.787909     -66.0375 
0.00532825     0.417612     -106.699 
0.000904008     0.252982      108.435 
0.00146392     0.468188     -70.0169 
0.00307656     0.304631     -156.801 
0.000526836      1.84391     -86.2686 
0.00194829     0.252982      71.5651 
0.00187842     0.447214     -63.4349 
0.000993763      1.88383     -86.3478 
0.00263135     0.339411     -135.000 
0.00251064     0.808950     -98.5308 
0.000927047      1.92375     -86.4237 
0.000456321     0.280000      180.000 
0.00163535     0.268328      116.565 
0.00219068      1.64438     -94.1849 
0.000445183     0.291204     -15.9454 
0.000862310      1.92666     -85.2364 
0.000433203      1.18929     -70.3462 
0.00200104     0.840952     -64.6538 
0.00631147     0.341760     -20.5560 
0.00605804      1.36704     -110.556 
0.00475382     0.256125      51.3402 
0.00268192     0.282843      171.870 
0.00228555     0.322490     -150.255 
0.000407851      1.96367     -86.4965 
0.00291880      1.22703     -70.9744 
0.00184539      1.96652     -85.3331 
0.000383943     0.282843      135.000 
0.00125182     0.377359     -122.005 
0.00168250      1.68428     -94.0856 
0.00102965     0.483322     -65.5560 
0.00312783     0.288444      123.690 
0.000353136     0.769415     -98.9726 
0.00450742      2.00639     -85.4261 
0.000317670      2.00360     -86.5664 
0.00301252     0.776660     -101.889 
0.00145234     0.804984     -63.4349 
0.00372516     0.291204      164.055 
0.00241863      1.68760     -95.4403 
0.00174551     0.268328      63.4349 
0.00269721     0.466476     -59.0362 
0.00294153      1.26491     -71.5651 
0.00162898     0.368782     -130.601 
0.000237054     0.322490     -172.875 
0.000679445      1.73159     -96.6325 
0.000226967     0.344093     -144.462 
0.00105226     0.430813     -111.801 
0.00260676     0.304631      113.199 
0.00175569     0.320000      180.000 
0.00115614      1.77629     -97.7652 
0.000208584      2.16333     -93.1798 
0.00175769      2.16592     -94.2364 
0.00147653     0.329848     -14.0362 
0.000667043     0.858836     -62.2415 
0.000912735      1.38159     -112.109 
0.000330956      1.82165     -98.8418 
0.000630839      2.04626     -85.5154 
0.000317595      2.74925     -98.3659 
0.00161388      2.70969     -98.4889 
0.00252322     0.256125      38.6598 
0.00143224      2.64484     -86.5318 
-0.0120929    0.0800000     -90.0000 
0.00179923      1.82822     -100.081 
0.000661888     0.894427     -63.4349 
0.000994372     0.785875     -104.744 
0.00125656      2.00998     -84.2894 
0.00196618      7.58620     -82.4253 
0.00124975     0.280000      0.00000 
0.000882713      5.97930     -81.9241 
0.000887702      1.32966     -111.161 
0.00118335      5.53173     -86.2686 
0.000537798     0.393954     -113.962 
0.000700379     0.983870     -63.4349 
0.00148531      2.20581     -94.1596 
0.000670448      6.40050     -90.7162 
0.00115385     0.432666     -56.3099 
0.00156646      3.68022     -90.6228 
0.000306039      1.16000     -90.0000 
0.00100176      3.16101     -91.4502 
0.000840739      3.40658     -74.3318 
0.000733309      8.32692     -81.7142 
0.000198581      9.61632     -93.3385 
0.000390035     0.282843     -8.13010 
-0.00159167     0.536656      26.5651 
0.000588790      1.20000     -90.0000 
0.00129882      1.16069     -88.0251 
0.000763853      1.84694     -85.0303 
0.000227592     0.966644     -65.5560 
0.000321425      1.69186     -96.7890 
0.000319289      1.88680     -85.1355 
0.000662002     0.930376     -64.5367 
0.000650792     0.440000     -90.0000 
0.000202063      1.25284     -73.3008 
0.00158742      4.45457     -94.6355 
0.000103549      1.73666     -97.9435 
0.000528656      1.85084     -83.7966 
0.00134034      3.29970     -83.7365 
0.000711416      6.44050     -90.7117 
0.000828477      1.78885     -100.305 
0.00102292      5.91053     -95.8263 
0.00116177      7.86608     -85.3331 
8.76182e-05     0.441814     -84.8056 
0.000171682      7.62585     -82.4649 
0.00116061      7.33790     -97.2025 
0.000796207      4.83322     -77.5741 
0.000457756      9.53646     -93.3665 
0.00128480      8.36469     -88.0817 
0.00110805      9.57639     -93.3524 
0.000582204      8.00450     -98.3326 
0.000569622     0.430813     -68.1986 
0.000704501      8.28164     -81.9482 
0.00123455      6.01890     -81.9776 
0.000825824     0.948262     -62.3540 
0.000776733      8.04408     -98.2913 
0.000435966      3.16228     -92.1747 
0.000282942      7.02236     -85.4261 
0.000609571      5.00783     -93.2052 
0.000838794      3.25748     -114.677 
7.65802e-05      6.40113     -91.0742 
0.000851925     0.291204      105.945 
0.000795154      6.90704     -97.9893 
0.000691849      1.89061     -83.9275 
7.19288e-05      6.36113     -91.0809 
0.000417001      4.12950     -86.1121 
0.000720234      4.66905     -83.6056 
0.000315746      3.25994     -83.6598 
0.000431830      1.30292     -72.1213 
0.000747113      9.00222     -91.2730 
0.00132826      6.00480     -87.7094 
0.000491210      8.71229     -97.3860 
0.000128768      3.20200     -102.995 
0.000828522      2.88721     -79.6242 
0.000549588      3.44511     -74.5115 
0.000355465      5.42852     -101.476 
0.000616501      2.23893     -108.759 
0.000509112      3.67042     -106.460 
0.000161201      7.41307     -86.5972 
0.000351695      9.22683     -98.7273 
0.000203925      1.64779     -95.5722 
0.000489281      3.17238     -103.861 
0.000341384      6.98249     -85.3999 
0.000757661      4.64844     -105.471 
0.000485385      2.64968     -118.887 
0.000465592      4.84198     -77.1118 
0.000333449      9.26637     -98.6898 
0.000380165      7.09366     -93.5562 
0.000217738      5.43662     -101.889 
9.76522e-05      4.45798     -95.1479 
0.000262624      7.42892     -78.5086 
0.000303343      6.29730     -105.096 
0.000255646      8.71752     -97.6468 
4.87297e-05      1.93039     -84.0531 
-0.00156844     0.555698      30.2564 
0.000410212      5.56129     -91.2364 
0.000307189      7.81476     -93.5215 
0.000605141     0.282843      98.1301 
4.42557e-05      1.23223     -54.2461 
0.000397065      1.79644     -101.560 
4.39973e-05      4.41470     -94.6774 
0.000571233      6.08644     -109.983 
0.000177596      1.97018     -84.1737 
0.000438475      10.2731     -98.5087 
8.21441e-05      1.25603     -52.7652 
0.000112723      4.21217     -94.3570 
0.000120400      9.44009     -90.2428 
0.000194722      9.75975     -76.2485 
0.000699489      4.90567     -99.3855 
0.000218668      1.66469     -54.7824 
-0.00106690     0.656049      142.431 
7.57496e-05      6.40063     -96.4588 
0.00598819     0.252982      18.4349 
0.000333833      9.48008     -90.2418 
7.30400e-05      1.22442     -51.6325 
0.000287160      10.1650     -91.8040 
0.000402706     0.400000     -53.1301 
9.59721e-05      8.40467     -88.0908 
0.000308205      8.35110     -113.127 
0.000214607      10.4621     -93.7266 
0.000282795      11.0212     -83.9583 
0.000622352      8.74098     -104.036 
3.54285e-05      7.59368     -78.4533 
0.000131973      9.76934     -76.0207 
6.68255e-05      6.36088     -96.4993 
0.000324642      7.62501     -78.8080 
0.000448515      11.0089     -98.7778 
0.000361743     0.411825     -60.9454 
3.43692e-05      9.69297     -99.5012 
0.000244550      1.20000     -53.1301 
0.00199501     0.268328      153.435 
0.000236471      6.33593     -105.001 
0.000559213      7.51713     -112.198 
-3.29866e-05     0.557136      21.0375 
0.000407753      4.49444     -73.9846 
0.000415890      1.16069      88.0251 
0.000385649      3.71139     -120.434 
0.000367436      8.46735     -85.3937 
0.000232524      2.68477     -118.474 
5.88089e-05      5.91473     -96.2118 
0.000116830      11.1287     -92.2659 
0.000171122      3.88659     -98.8807 
8.64270e-05      6.35648     -96.1411 
-0.0148242    0.0400000     -90.0000 
5.79334e-05      1.09179     -61.5571 
0.000153018      8.99822     -79.2395 
-0.00101199      1.70176     -66.4477 
0.000142598     0.368782     -49.3987 
-0.000254136     0.600000      143.130 
0.000130273      10.3186     -98.6955 
0.00206140     0.256125      141.340 
0.000634153      1.84391     -102.529 
0.000156802      9.10964     -76.0248 
0.000163232      9.52008     -90.2407 
-0.000728782      7.85437     -117.609 
2.78933e-05      9.65352     -99.5404 
-0.00115501     0.481664     -175.236 
0.000266364      5.09054     -59.8084 
0.000791016     0.377359     -57.9946 
-0.00148040     0.576888      146.310 
0.000286296      1.75454     -114.228 
-0.00111790      1.66517     -65.8978 
-0.000712120     0.544059      17.1027 
0.000209773      11.1703     -92.4628 
0.000713520      1.12071      87.9546 
0.000177471      11.0610     -83.9801 
0.000231629      9.00320     -111.092 
0.000103364      1.11140     -59.7436 
0.000214701      8.88900     -87.4209 
0.000246572      6.47975     -101.032 
2.55226e-05      7.90595     -85.3567 
8.44011e-05      3.21123     -103.690 
0.000108278      8.75196     -97.3524 
-5.04035e-05     0.538145      41.9872 
0.00125475     0.252982      161.565 
-0.00427441     0.486621     -170.538 
9.27304e-05      10.0412     -101.489 
-0.000817435     0.538145      48.0128 
2.45028e-05      5.04777     -93.1798 
6.68900e-05      1.17644     -54.6888 
0.000847668      1.69753     -55.5610 
0.000196048      8.38790     -113.019 
0.000304835      11.0563     -86.8892 
0.000158189      5.00576     -92.7481 
0.000150409      9.14846     -76.0853 
0.000347483      1.13208     -57.9946 
0.000156166      6.94596     -85.0446 
0.000394635      12.1964     -76.9209 
8.37055e-05      7.66426     -78.8660 
-0.000172438      1.40911     -124.592 
2.25421e-05      1.77629     -82.2348 
5.88359e-05      7.13358     -93.5363 
0.000554714      1.62086      105.751 
-0.000721940     0.533667      12.9946 
0.000929210      1.67093     -78.9591 
2.19742e-05      10.3581     -98.6621 
0.000652802     0.339411     -45.0000 
0.000149435      6.12405     -109.855 
0.000428695      8.84570     -114.015 
5.96770e-05      8.48340     -88.3789 
0.000114560      3.67696     -81.8699 
-0.000426822      1.44222     -123.690 
4.08293e-05      4.93964     -111.371 
0.000198418      10.2050     -91.7969 
0.000283711      10.0884     -101.666 
2.10601e-05      8.21365     -78.1976 
-0.000981714      5.86679     -84.5226 
0.000247073      11.0029     -98.5720 
0.000229717      10.3126     -98.4758 
0.000370454      5.07054     -60.1991 
5.69757e-05      7.85723     -93.7947 
0.000277861      1.15378     -56.3099 
-0.000920454      1.44886      96.3402 
0.000346241      10.2585     -71.3531 
0.000201576      3.72236     -81.3475 
0.000575230      8.07029     -71.2058 
-1.90262e-05      1.14403     -126.469 
0.000258151      9.21668     -76.4462 
0.00209600     0.243310      9.46232 
-0.000546456      1.17644     -125.311 
0.000155224      11.2103     -92.4540 
0.000140367     0.848528      81.8699 
3.48712e-05      1.12071     -87.9546 
0.000508157      2.78108     -130.333 
0.000278575      11.7924     -102.339 
-0.000588752     0.526118      8.74616 
3.12719e-05      7.43408     -74.3934 
0.000144430      1.71814     -114.775 
0.000119836     0.368782     -77.4712 
0.000253758      6.45786     -122.607 
-0.000112473      8.82406     -106.052 
9.97801e-05      3.73181     -120.964 
9.07620e-05      7.74741     -115.374 
0.000786021     0.855102      79.2157 
0.000269311      6.48753     -101.379 
5.38786e-05      7.85997     -94.0856 
-0.000667619     0.568507      140.711 
-0.000431462     0.544059      53.9726 
5.38525e-05      8.88729     -87.6785 
8.73979e-05      5.00400     -92.2906 
0.000663297     0.312410     -39.8056 
0.00201658     0.233238      30.9638 
3.07196e-05      9.07894     -95.3087 
9.58023e-05      6.90275     -85.3466 
0.000159501      5.04143     -88.6361 
1.54574e-05      5.10498     -122.196 
-0.000548009      5.62921     -98.9938 
1.54364e-05     0.344093     -54.4623 
-0.000259076      4.87360     -73.7962 
9.51035e-05      3.62083     -106.032 
1.52602e-05      8.52338     -88.3865 
0.000133816      5.17131     -104.789 
0.000169721      4.39345     -100.491 
4.13863e-05      1.12285     -85.9144 
8.15389e-05      3.06150     -107.488 
-4.38437e-05      6.50169     -71.3421 
0.000334028      5.13887     -121.958 
0.000505061      9.03912     -95.3322 
-0.000260590      8.86251     -105.981 
4.13162e-05      11.6483     -87.8352 
-0.000725220     0.521536      4.39871 
0.000147872      8.42473     -112.913 
6.98575e-05      8.84733     -87.6680 
5.63520e-05      10.2838     -91.5602 
0.000116045      6.90159     -67.1502 
-1.44353e-05      5.84671     -124.125 
-0.000446167      1.38679     -123.232 
0.000824096     0.800999     -2.86241 
-0.000593231      5.87986     -123.906 
2.78619e-05      8.03243     -71.1139 
-0.000359885      6.46381     -71.2287 
7.42576e-05      6.37457     -104.908 
1.38908e-05      8.95151     -79.4433 
5.26975e-05      10.6907     -84.4174 
0.000259399      5.52014     -126.455 
-3.69662e-05      9.44889     -71.4884 
0.000296173      9.25557     -76.5043 
0.000330632      10.3628     -91.3271 
0.000119556      8.42748     -85.3719 
0.000491790      1.31575     -109.537 
0.000405949      5.03460     -70.9892 
-0.000787781     0.521536      57.5288 
1.26958e-05      11.2502     -92.4453 
3.65805e-05      1.29120     -16.1892 
9.40214e-05      4.81365     -64.9256 
0.000139042      11.2520     -92.6488 
0.000247444      6.22832     -118.376 
4.76710e-05      5.87074     -95.8660 
-0.00147918     0.520000      0.00000 
0.000120436      2.75071     -130.872 
-0.000245654      9.72527     -91.8856 
-0.000387801      5.56518     -115.092 
3.34679e-05      6.87314     -98.3659 
0.000193164      11.7712     -99.7824 
-1.21140e-05      6.77997     -108.221 
0.000107599      10.6509     -84.3965 
0.000170666      3.76191     -81.4391 
-0.000472319      2.48966     -113.682 
8.25912e-05      8.75077     -104.290 
3.10737e-05      7.76464     -115.641 
-0.000231008      6.79258     -108.542 
4.84698e-05      11.6083     -87.8278 
6.15366e-05      8.76256     -101.053 
3.17799e-05      10.9970     -98.3659 
3.90059e-05      8.96589     -111.184 
0.000170500      3.03579     -108.435 
0.000181772      12.1874     -77.1040 
2.14826e-05      5.47576     -101.802 
8.86043e-05      6.16169     -109.729 
3.89375e-05      2.05407     -83.2902 
9.78476e-05      5.30072     -81.3196 
0.000129123      5.87496     -96.2540 
-0.000493781     0.565685      135.000 
0.000137543      10.0492     -101.712 
0.000120495      5.00256     -88.1672 
2.19056e-05      6.86289     -85.3196 
3.19465e-05      1.30292     -17.8787 
-5.77030e-05      8.82922     -71.2367 
-0.000518636      3.44093     -88.6678 
-0.000138912      8.95089     -67.6756 
0.000166773      6.88616     -67.4569 
4.15460e-05      3.12231     -92.2026 
0.000310318      2.05913     -65.9245 
6.30623e-05      7.11640     -81.5966 
0.000421177      1.47078     -135.000 
1.05389e-05      6.88047     -89.3338 
0.000887215     0.288444     -33.6901 
-8.05209e-05      2.70703     -124.160 
7.54689e-05      1.73528     -115.974 
-0.000282158      4.90110     -74.3758 
1.03752e-05      9.28526     -76.8019 
2.03925e-05      6.61743     -85.8404 
-0.000293296      8.08920     -100.254 
0.000144662      1.85300     -103.736 
6.15004e-05      3.36690     -103.046 
-0.000233679      1.55589     -46.0416 
-0.000110966      9.51370     -94.8237 
-0.000162886      2.52982     -124.695 
-2.84655e-05      10.8442     -80.0165 
4.77055e-05      6.65733     -85.8653 
0.000165724      1.32966     -15.7086 
-0.000355494      1.15378     -123.690 
-0.000119382      4.70982     -69.1022 
8.37439e-05      5.13264     -104.903 
0.000172310      2.88028     -80.4069 
8.43210e-05      6.84047     -89.3299 
1.78062e-05      1.12641     -83.8845 
4.31756e-05      7.89987     -94.0649 
-0.000329407      3.56786     -70.3462 
-0.000206907      9.51378     -107.368 
9.43509e-05      10.6111     -84.3754 
0.000119770      1.64924      104.036 
0.000316126     0.863481      76.6075 
0.000153666      3.33946     -83.8114 
0.000152230      5.03587     -59.9729 
0.000181676      8.61450     -107.846 
-3.46963e-05      9.84073     -105.562 
-0.000160314      5.14805     -57.0508 
1.76871e-05      3.12103     -91.4688 
-0.000188914      2.67402     -124.641 
7.15406e-05      10.9259     -95.2514 
0.000269038      6.69722     -85.8900 
-8.08509e-05      5.12063     -118.968 
-0.000153515     0.594643     -132.274 
3.61141e-05      5.04397     -92.2724 
0.000250104      3.46318     -83.3675 
5.55367e-05      8.80182     -101.004 
