! Center RA: 11 53 54.65897,  Dec: +40 36 52.61873 (2000.0)
! Established model.
! Flux (Jy) Radius (mas)  Theta (deg)  Major FWHM (mas)  Axial ratio   Phi (deg) T \
! Freq (Hz)     SpecIndex
 0.0632401      3.14070      83.4181 
0.00910731     0.120000      0.00000 
 0.0155107      3.18044      83.5007 
0.00276020      3.14554      82.6942 
0.00141401     0.126491      18.4349 
0.00403027    0.0800000     -90.0000 
0.00136878     0.178885      26.5651 
0.00132619     0.200000      36.8699 
0.00128605     0.233238      30.9638 
 0.0102421     0.126491     -108.435 
0.00366019     0.256125      38.6598 
0.00228820     0.256125      51.3402 
0.00217997     0.288444      56.3099 
0.00293764     0.341760      69.4440 
0.00660164     0.164924     -104.036 
0.00205113     0.565685      81.8699 
0.00295690     0.268328      26.5651 
0.00383235     0.605310      82.4054 
0.00357490     0.252982      18.4349 
0.00349457     0.644981      82.8750 
0.00399347     0.178885     -116.565 
0.00465620     0.368782      77.4712 
0.00161942     0.651153      79.3803 
0.000814722     0.291204      15.9454 
0.000798806     0.243310      9.46232 
0.00640074     0.690507      79.9920 
0.00430243     0.282843      8.13010 
0.000751992     0.169706     -135.000 
0.00206328     0.200000     -143.130 
0.00482433     0.362215      83.6598 
0.000650827     0.215407     -158.199 
0.00359738     0.322490      7.12502 
0.000635084     0.200000     -90.0000 
0.00239794     0.729931      80.5377 
0.00181920     0.280000      180.000 
0.00603135      2.49159      84.4725 
0.000600272     0.240000     -90.0000 
0.00169625     0.724431      83.6598 
0.00166724     0.243310     -80.5377 
0.00165071     0.282843      171.870 
0.00299306     0.764199      83.9910 
0.000526033     0.368782      12.5288 
0.000522267     0.360000      90.0000 
0.00150900     0.322490      172.875 
0.000514023     0.252982     -71.5651 
0.000509766     0.407922      78.6901 
0.000506862     0.320000      0.00000 
0.00636865      2.49576      83.5584 
0.000496796     0.400000      36.8699 
0.000496258     0.282843     -81.8699 
0.000959951     0.362215      96.3402 
0.00140191     0.291204     -15.9454 
0.000479035     0.425206      41.1859 
0.000476780     0.322490     -82.8750 
0.00265223     0.329848      165.964 
0.000910344     0.456070      37.8750 
0.000907420     0.360000     -90.0000 
0.00218691     0.803990      84.2894 
0.000881897     0.368782      102.529 
0.000438234     0.452548      45.0000 
0.00126538     0.401995     -95.7106 
0.000835721     0.329848     -14.0362 
0.00163077     0.481664      41.6335 
0.00119024     0.304631     -23.1986 
0.00118642     0.379473      108.435 
0.00370534     0.840952      87.2737 
0.000499274      2.53551      83.6598 
0.00188987     0.368782      167.471 
0.00223580     0.447214     -100.305 
0.000394848      2.73057      84.9575 
0.000749213     0.488262      34.9920 
0.00718207      2.81027      85.1009 
0.00140100     0.341760     -20.5560 
0.000364696     0.417612      106.699 
0.00138234     0.512250      38.6598 
0.00375241      2.45601      83.4537 
0.00102631     0.393954      113.962 
0.000684722     0.401995      174.289 
0.000986893     0.456070     -105.255 
0.000649190     0.880909      87.3974 
0.000948302     0.407922      168.690 
0.000937050     0.344093     -35.5377 
0.000640133     0.501199      28.6105 
0.000932542     0.430813      111.801 
0.00672193      3.18522      82.7857 
0.000921692     0.880000      90.0000 
0.000613749     0.468188     -109.983 
0.000309874     0.441814      174.806 
0.000307928     0.538145      41.9872 
0.000306285     0.357771     -26.5651 
0.00104244     0.505964      18.4349 
0.00114219     0.544059     -143.973 
0.000296264     0.538145      48.0128 
0.00140510     0.920000      90.0000 
0.000293540     0.368782      130.601 
0.00157313     0.494773      14.0362 
0.000290009     0.447214      169.695 
0.00182529     0.368782     -40.6013 
0.000287732     0.576888      56.3099 
0.000561464     0.411825      119.055 
0.000552665     0.494773     -104.036 
0.000746338      2.85012      85.1696 
0.000281916     0.481664      175.236 
0.00579076      2.41628      83.3456 
0.000277777     0.568507      50.7106 
0.000503768     0.377359     -32.0054 
0.000513661     0.456070      164.745 
0.000269315     0.468188      109.983 
0.000774349     0.600000      53.1301 
0.000522423     0.486621      170.538 
0.00179343     0.576888     -146.310 
0.00109433     0.960000      90.0000 
0.00111807     0.400000      126.870 
0.000509595      1.00080      87.7094 
0.000255534     0.483322      114.444 
0.000974530     0.526118      171.254 
0.000249266     0.400000      143.130 
0.000484413     0.486621     -99.4623 
0.000247467     0.698570      103.241 
0.000246118     0.565685      171.870 
0.000922330      1.04077      87.7974 
0.000411850     0.432666      123.690 
0.000240058     0.776660      168.111 
0.000239903     0.632456      55.3048 
0.000813588     0.590593     -151.699 
0.000238068     0.708802      106.390 
0.000457115     0.835225      163.301 
0.000447935     0.665733      57.2648 
0.000671737     0.747262      105.524 
0.00138644      1.08074      87.8789 
0.000228538     0.824621      165.964 
0.00103999     0.526118     -98.7462 
0.000599486     0.395980      135.000 
0.00102116     0.395980     -45.0000 
0.000432211     0.624820      50.1944 
0.000635120     0.610574     -148.392 
0.000219969     0.486621      9.46232 
0.00255395      2.77417      84.2072 
0.000217647     0.601332      176.186 
0.000215150     0.861626      158.199 
0.000531889      1.12071      87.9546 
0.000796090     0.533667      12.9946 
0.000783826     0.400000     -36.8699 
0.000212086     0.425206      131.186 
0.000615794     0.785875      104.744 
0.000209308     0.898888      159.146 
0.000208478     0.626099     -153.435 
0.000675761     0.481664      4.76364 
0.000206673     0.640000      180.000 
0.00141212      1.16276      86.0548 
0.000203865     0.734302      60.6422 
0.000202984     0.913893      156.801 
0.000399949     0.544059      17.1027 
0.00230629      2.37217      84.1933 
0.000200022     0.803990      174.289 
0.000197659     0.754718      57.9946 
0.000841786     0.930376      154.537 
0.000924872     0.644981     -150.255 
0.000382236     0.796994      107.526 
0.000193759     0.800999      177.138 
0.000192578     0.555698      30.2564 
0.00104955     0.788923      59.5345 
0.000187713     0.561427      175.914 
0.000346972     0.466476      120.964 
0.000185508     0.594643      42.2737 
0.000528917     0.880909      177.397 
0.000182713     0.521536     -94.3987 
0.000978728     0.526118      8.74616 
0.000697732      1.20266      86.1859 
0.000357663     0.772528      111.251 
0.00112456     0.565685     -98.1301 
0.000485779      2.77042      85.0303 
0.00360737      3.23011      82.1709 
0.000493109     0.393954      156.038 
0.000498374     0.948262      152.354 
0.000173938     0.576888      33.6901 
0.000960310     0.425206     -48.8141 
0.000788496     0.920869      177.510 
0.000741665     0.787909      113.962 
0.00119499     0.680000     -151.928 
0.000323958     0.967471      150.255 
0.00103951      1.18794      135.000 
0.000162011      1.24258      86.3086 
0.000417221     0.809938      110.225 
0.000298574     0.417612      163.301 
0.000583583     0.600000      36.8699 
0.000459385      1.28561      84.6442 
0.00122328     0.823650      60.9454 
0.000451579     0.441814     -5.19443 
0.000748432     0.665733     -147.265 
0.000150194     0.447214      116.565 
0.000435839     0.983870      153.435 
0.000496499      1.00000      90.0000 
0.000145646     0.377359      147.995 
0.000556754      1.32544      84.8056 
0.000267814     0.680000      118.072 
0.000779604     0.456070     -52.1250 
0.000273708     0.960000      180.000 
0.000703026     0.480000      0.00000 
0.000784002     0.605310     -97.5946 
0.000564541     0.751532      115.201 
0.000646239      1.01980      154.440 
0.000877595     0.960833      92.3859 
0.000264190      1.00080     -177.709 
0.000135158     0.377359      122.005 
0.000133464      2.73437      84.1226 
0.000130986     0.344093      144.462 
0.000379683      1.21655      136.332 
0.000130434     0.425206     -41.1859 
0.000130288     0.699714     -149.036 
0.000500656      1.36528      84.9575 
0.000328379     0.715542      116.565 
0.000246693     0.610574      31.6075 
0.000124423      1.06733     -167.005 
0.000123756     0.339411      135.000 
0.000122640     0.960833      177.614 
0.000455571      1.07703     -164.932 
0.000230234     0.452548     -45.0000 
0.000557116      1.05603      155.376 
0.000558187      1.27311      136.273 
0.000733175     0.312410      129.806 
0.000117774     0.611882     -101.310 
0.000455571      1.40513      85.1009 
0.000116637      1.00000      180.000 
0.000114848     0.609262      23.1986 
0.000628997     0.651153     -100.620 
0.000625161     0.843801      58.5704 
0.000111732     0.644981     -97.1250 
0.000111270     0.963328      94.7636 
0.000412992      1.00080      177.709 
0.000418021     0.626099      26.5651 
0.000687602     0.488262     -55.0080 
0.000315208      1.44499      85.2364 
0.000211128      1.09252      156.251 
0.000104989      1.08812     -162.897 
0.000283561     0.873613      105.945 
0.000651849     0.632456     -145.305 
0.000102021      1.30782      156.571 
0.000101602      1.11571     -165.466 
0.000386330      1.30231      137.490 
0.000100293      1.48486      85.3645 
0.000608274     0.847585      109.290 
9.84251e-05     0.312410      140.194 
0.000283027      1.12641     -163.496 
9.82389e-05      1.48216      86.9059 
0.000190800      1.34462      157.249 
0.000547751      1.52210      86.9872 
9.50875e-05     0.521536      4.39871 
9.46282e-05      1.00319      156.501 
0.000445111      2.33238      84.0939 
0.000361716     0.690507     -100.008 
0.000879287      2.88998      85.2364 
0.000265176     0.662118      25.0169 
9.30323e-05      1.04000      180.000 
0.00147067      2.54024      82.7631 
0.000183721      1.10055     -160.907 
0.000558532     0.878180      59.9314 
0.000863594     0.680000      28.0725 
0.000262935      1.39714      156.371 
0.000406518     0.288444      123.690 
0.000493343      1.35882      137.386 
0.000411118      1.04077      177.797 
0.000541347     0.481664     -4.76364 
0.000165582     0.809938      147.095 
0.000191436      1.13842     -161.565 
0.000695647     0.521536     -57.5288 
8.50703e-05     0.447214     -10.3048 
0.000406718      1.56205      87.0643 
0.000245610     0.737564     -102.529 
0.000383486      1.11427     -158.962 
8.37568e-05     0.894427      153.435 
0.000158548      1.08296      85.7636 
8.25259e-05      2.50056      82.6476 
0.000778697      1.43388      157.011 
0.000122274      2.28876      84.9869 
8.09096e-05      1.02215     -120.579 
8.09232e-05     0.843801      148.570 
0.000702709     0.600000     -143.130 
0.000155763      1.15169     -159.677 
0.000654605      2.24891      84.8978 
0.000503304      1.04307     -122.471 
0.000766199      3.23580      81.4692 
0.000982405     0.521536      175.601 
0.000375258      2.57992      82.8750 
0.000146079     0.665733      122.735 
0.000285273      1.60200      87.1376 
0.000284734     0.729931     -99.4623 
7.51102e-05     0.858836      152.241 
0.000202418      2.54558      81.8699 
0.000419734     0.885438      108.435 
0.000268669     0.268328      116.565 
0.000270996      1.60050      88.5679 
0.000151523      1.17644     -162.181 
0.000346635      1.12285      85.9144 
0.000405247      1.38852      138.504 
7.31084e-05      1.04307      175.601 
0.000143507      1.09179     -151.557 
0.000912000     0.913017      61.1892 
0.000693222      2.92985      85.3013 
0.000133016     0.776660      145.491 
0.000519465      1.56051      88.5312 
0.000201273      1.08074      177.879 
0.000105682      1.20333     -164.578 
6.85430e-05     0.823650      150.945 
0.000341663      2.08614      85.6013 
0.000468910     0.521536     -4.39871 
0.000302459     0.555698     -59.7436 
6.68978e-05      1.07703     -148.671 
0.000175367     0.744043      143.746 
0.000247579      1.23223     -166.866 
0.000125699      1.08296      175.764 
0.000235717     0.544059     -53.9726 
0.000176184      1.80710      84.9204 
6.43831e-05     0.656049      127.569 
0.000186573     0.769415     -98.9726 
0.000524469      1.09836     -146.889 
0.000378007      2.12603      85.6840 
0.000185033     0.923472      107.650 
0.000168856     0.486621     -9.46232 
6.33372e-05      1.04995      162.255 
0.000242794      1.06508     -124.287 
6.24354e-05     0.632456      124.695 
0.000158227      2.04626      85.5154 
0.000424565      1.48647      156.194 
0.000321852      3.24197      80.7701 
0.000331793      1.41873      139.574 
0.000189920      1.76726      84.8056 
0.000683101      3.28146      80.8821 
0.000427351      1.24193     -165.069 
0.000258441     0.610574      121.608 
0.000174227     0.520000      180.000 
0.000623478     0.936376      109.983 
5.75491e-05      1.08665      173.660 
0.000364814     0.764199     -96.0090 
0.000161670     0.322490      119.745 
0.000260575      1.07703     -121.329 
5.64283e-05     0.754718      147.995 
0.000105480     0.699714      30.9638 
5.59590e-05      1.08812      162.897 
0.000108498      1.12071      177.955 
0.000230967      1.27122     -167.276 
0.000396774     0.715542      26.5651 
0.000134385     0.712180      141.843 
0.000430610      1.08812     -143.973 
0.000102354      1.12641      163.496 
0.000610158     0.568507     -140.711 
0.000154117      1.09836     -123.111 
8.08432e-05      1.84694      85.0303 
0.000366418     0.576888     -56.3099 
0.000265758     0.576888      123.690 
9.68429e-05      1.16069      178.025 
0.000842375      2.96971      85.3645 
9.22227e-05      1.73666     -141.546 
0.000425526      1.47513      139.399 
0.000357678      1.77133      83.5169 
4.85973e-05      1.31027     -167.661 
0.000308584     0.590593      118.301 
0.000411260      1.74402     -143.393 
7.34621e-05     0.561427     -4.08562 
0.000341939      1.56000      90.0000 
4.80369e-05      1.44499      138.366 
4.78134e-05     0.721110      146.310 
9.05595e-05      1.17644      162.181 
4.74422e-05      1.31939     -165.964 
0.000286183      1.52315      156.801 
0.000127344     0.526118     -8.74616 
0.000314816      1.76816     -142.352 
9.14466e-05      1.59248     -168.408 
4.62770e-05      1.12071     -145.176 
0.000663767      1.11140     -120.256 
0.000379832     0.688186      144.462 
0.000129268     0.601332     -3.81407 
0.000179868     0.304631      113.199 
0.000161122      1.16482      164.055 
0.000327582     0.721110      33.6901 
0.000246825      1.80044      178.727 
0.000208009      1.16619      84.0939 
4.44383e-05     0.803990     -95.7106 
4.38784e-05      1.16276      176.055 
0.000123250      1.28062     -165.530 
4.32787e-05      1.63169     -168.690 
0.000152023     0.734302      29.3578 
8.42183e-05     0.761052     -93.0128 
8.12274e-05     0.948262      62.3540 
0.000223773     0.555698      120.256 
0.000120985      1.73159      83.3675 
0.000139608      1.64000     -167.320 
7.82627e-05     0.565685     -8.13010 
4.18051e-05     0.974064      109.179 
7.93400e-05     0.641249     -3.57633 
0.000565185     0.987927      111.371 
0.000691954      3.24863      80.0738 
0.000141797      1.17098      172.147 
0.000199843     0.898888      57.7244 
0.000343163     0.800999     -92.8624 
0.000184635      1.47567     -122.829 
7.31672e-05      2.32860      85.0729 
0.000210584     0.610574     -58.3925 
3.78881e-05      1.17098      82.1467 
3.78800e-05      1.15447      165.964 
0.000327044      1.68808     -166.293 
0.000175406      1.84174      177.510 
0.000125856      2.36846      85.1560 
7.25927e-05      1.69706      81.8699 
0.000106157      1.14543      77.9052 
7.37655e-05      1.41421     -98.1301 
3.61540e-05      1.30599      130.030 
0.000198520      1.56051      91.4688 
3.59647e-05      1.25284     -163.301 
0.000197686      3.28804      80.1939 
3.55516e-05      1.50572      140.389 
3.52923e-05     0.605310     -7.59464 
0.000420603      1.40911     -96.5198 
0.000130627      1.57582      156.038 
0.000158427      1.11571      75.4655 
0.000132188      1.56205      140.194 
3.43804e-05      1.60100      77.0054 
0.000389161     0.533667     -12.9946 
6.29851e-05      1.00319      113.499 
3.34895e-05     0.644981     -7.12502 
0.000267673      1.49773     -124.114 
9.24710e-05      1.28062      128.660 
9.01035e-05      1.21458      162.759 
0.000416428      1.77629     -144.162 
3.24348e-05      1.57175      75.2564 
0.000391364     0.865332      56.3099 
0.000291561      1.84391      176.269 
0.000115394     0.684690     -6.70984 
3.09925e-05      1.54402      73.4429 
0.000167201      1.73666     -165.324 
8.82589e-05      1.59298      141.116 
0.000162973     0.644981     -60.2551 
3.00627e-05      1.20333      164.578 
8.69383e-05      1.97342     -107.700 
2.95003e-05      1.58240      73.8557 
0.000112529      1.66517      155.898 
0.000125497      1.12641      73.4956 
2.90823e-05      1.19331      166.430 
2.89598e-05      1.56205      92.9357 
0.000370308      2.50344      77.0740 
0.000308465      2.40000     -143.130 
5.62326e-05      2.44818      85.3141 
0.000225881      2.07692     -164.358 
0.000156002      1.55589      72.0309 
9.58155e-05     0.665733      147.265 
0.000103864     0.761052     -86.9872 
2.80222e-05      1.18457      168.311 
0.000259432      1.60200      92.8624 
0.000350683      2.01157     -107.354 
5.32498e-05      1.25603      127.235 
5.38496e-05      2.57527      83.7581 
0.000128327      1.68048      141.766 
2.72218e-05     0.800000     -90.0000 
0.000100238      1.20599      174.289 
9.31914e-05      2.16592      85.7636 
0.000144269      2.51269      76.1850 
0.000230608      1.53101     -123.275 
5.00111e-05      1.22703      160.974 
0.000220884      1.81108      83.6598 
5.13397e-05      1.70176      156.448 
0.000189113      1.88680      175.135 
2.56523e-05      1.08812      72.8973 
9.32410e-05     0.494773     -14.0362 
3.66572e-05      2.57123      84.6442 
0.000114275     0.698570      23.6294 
7.19043e-05      2.48805      85.3894 
0.000274831      1.44499     -94.7636 
6.66059e-05     0.729931     -9.46232 
8.99903e-05      1.28810      126.158 
2.45361e-05     0.533667      167.005 
7.14974e-05      1.75454      155.772 
7.19937e-05      2.52792      85.4622 
0.000137574      1.12000      90.0000 
4.56670e-05     0.724431     -6.34019 
2.34164e-05      1.31210      127.569 
8.63042e-05     0.680000     -61.9275 
4.38520e-05      1.08074     -141.009 
0.000129711      1.76816      142.352 
8.61903e-05     0.800999     -87.1376 
0.000185071      1.53101      70.1448 
7.84813e-05     0.632456      145.305 
0.000239466      1.75317     -145.222 
4.41965e-05      1.09179     -118.443 
0.000195217      1.79109      156.297 
0.000159968      2.42421     -142.374 
0.000191514     0.832346      54.7824 
6.54804e-05      1.40513     -94.8991 
2.23906e-05     0.200000      53.1301 
7.40921e-05      2.20581      85.8404 
0.000110489      1.24065      159.228 
4.36651e-05      2.06495      171.085 
7.19185e-05      1.64195      92.7927 
9.89112e-05     0.950789      112.249 
6.41395e-05     0.764199     -83.9910 
2.18012e-05      1.20266      176.186 
9.59896e-05     0.665733     -57.2648 
0.000225223      3.00958      85.4261 
4.22515e-05      2.07692     -105.642 
6.12571e-05      1.25539      157.521 
0.000115871      2.44524      86.2483 
0.000218648      1.64438      94.1849 
4.01155e-05      1.10055      70.9065 
6.98713e-05      2.61105      84.7261 
0.000168896      3.25576      79.3803 
8.99482e-05      1.24258      176.309 
0.000127931      1.12071      92.0454 
5.74347e-05      2.52254      75.3027 
0.000116107      3.45508     -159.677 
2.04275e-05      2.11092      170.181 
