! Center RA: 12 29 06.69973,  Dec: +02 03 08.59828 (2000.0)
! Established model.
! Flux (Jy) Radius (mas)  Theta (deg)  Major FWHM (mas)  Axial ratio   Phi (deg) T \
! Freq (Hz)     SpecIndex
  0.725947    0.0500000      90.0000 
  0.415558      0.00000      0.00000 
  0.395103    0.0707107      45.0000 
  0.178335    0.0707107     -135.000 
  0.173588     0.820061     -127.569 
  0.346630     0.282843      45.0000 
  0.165497     0.360555     -123.690 
  0.311807     0.960469     -128.660 
  0.204520     0.212132     -135.000 
  0.283120     0.353553      45.0000 
  0.835581     0.540833     -123.690 
  0.743234     0.111803     -153.435 
  0.375725      1.03078     -129.094 
  0.635578     0.424264      45.0000 
  0.368084     0.141421     -135.000 
  0.116821      1.07005     -127.405 
  0.258063     0.514782     -119.055 
  0.671886      1.10114     -129.472 
  0.548258     0.494975      45.0000 
  0.120502     0.583095     -120.964 
  0.395745      1.17154     -129.806 
  0.175787     0.531507      41.1859 
 0.0338904     0.610328     -124.992 
 0.0305424    0.0500000     -180.000 
 0.0285450     0.750000     -126.870 
 0.0772029     0.602080      41.6335 
 0.0776824     0.111803      63.4349 
 0.0258516     0.471699     -122.005 
 0.0430071     0.781025     -129.806 
 0.0452424      1.24197     -130.101 
 0.0758555     0.180278      56.3099 
 0.0217091     0.403113     -119.745 
 0.0412765     0.672681      41.9872 
 0.0208674     0.851469     -130.236 
 0.0197132      1.27475     -131.820 
 0.0314581     0.335410     -116.565 
 0.0185060     0.710634      39.2894 
 0.0641828      1.31244     -130.365 
 0.0332599     0.291548     -120.964 
 0.0463429     0.813941     -132.510 
 0.0169364     0.743303      42.2737 
 0.0639663     0.212132      45.0000 
 0.0768569     0.781025      39.8056 
 0.0768088      3.47131     -138.504 
 0.0511078      6.22354     -141.196 
 0.0136396     0.250000     -126.870 
 0.0374681      3.50464     -137.891 
 0.0129131      1.35093     -128.991 
 0.0243271     0.848528     -135.000 
 0.0624187      6.69347     -138.331 
 0.0582959      1.32004     -127.304 
 0.0225295      19.4583     -122.833 
 0.0220409      6.27096     -142.125 
 0.0206392     0.884590     -137.291 
 0.0105587     0.269258     -111.801 
 0.0104333      19.3892     -122.788 
 0.0102377      6.24039     -142.487 
 0.0100480      19.5888     -122.067 
0.00976582      6.07001     -143.036 
0.00973101      19.2510     -122.699 
0.00945670     0.316228     -108.435 
0.00944099      19.6312     -121.990 
0.00942737      6.29385     -141.127 
0.00917782      19.2780     -122.825 
0.00916570      5.87069     -136.380 
 0.0824500     0.813941      42.5104 
0.00900113     0.921954     -139.399 
0.00894523      6.04007     -143.415 
 0.0246152      19.6472     -121.789 
0.00882239      20.5996     -125.117 
0.00864448      19.1014     -122.276 
 0.0294656      3.15159     -138.215 
0.00857974      13.4727     -121.803 
0.00851568     0.364005     -105.945 
0.00854060      6.37201     -141.691 
0.00834458      19.7612     -123.650 
0.00835540      3.64177     -135.556 
 0.0159420      6.00000     -143.130 
0.00817260     0.960469     -141.340 
0.00818772      5.86941     -135.690 
0.00816445      12.9653     -121.115 
0.00808926      6.43506     -135.630 
 0.0154427      1.36015     -126.027 
0.00804147      19.4895     -125.076 
 0.0224888      13.5152     -121.691 
0.00798686      18.9369     -122.053 
 0.0151434      20.6406     -125.038 
 0.0149024      3.99531     -135.507 
 0.0150416      6.77366     -139.490 
 0.0210062     0.412311     -104.036 
0.00765582      12.8967     -121.040 
0.00873030      4.59674     -135.881 
0.00752053      6.44224     -141.618 
0.00747935      18.8345     -124.618 
0.00742505      1.00000     -143.130 
0.00741620      19.3179     -123.279 
 0.0134502      5.83374     -135.347 
0.00722139      12.9226     -121.230 
0.00718854      19.6897     -121.712 
 0.0133322      18.5025     -124.764 
0.00710580      5.41225     -136.872 
0.00705194      18.9104     -121.925 
0.00700611      22.6939     -127.930 
0.00695122      6.39941     -134.683 
 0.0189921      6.01041     -143.797 
 0.0133346      11.8454     -119.595 
0.00687464      19.5183     -125.196 
 0.0128374      20.3510     -126.307 
0.00674493      4.66744     -135.868 
 0.0246215      1.05475     -148.570 
0.00671776      6.48151     -141.892 
0.00671578      12.8539     -121.155 
 0.0129505      19.6209     -121.665 
 0.0298332      3.11448     -137.603 
 0.0128423      13.4679     -122.569 
0.00661159      18.5436     -124.676 
0.00656274      22.7641     -127.952 
0.00655255      18.8680     -122.005 
 0.0430351      14.0982     -121.661 
0.00655312      3.85389     -135.526 
0.00650032      6.80625     -139.170 
0.00647070      20.7102     -125.071 
0.00643039      5.37587     -136.507 
 0.0118584      6.29365     -134.356 
 0.0409930      1.33135     -124.287 
0.00622078      22.7247     -128.030 
 0.0294549      3.08099     -138.289 
0.00614143      18.8945     -122.134 
0.00614602      11.8889     -119.476 
 0.0209728      4.70346     -136.292 
0.00603428      19.1823     -121.245 
 0.0159335      3.92460     -135.516 
0.00599890      12.7339     -120.694 
0.00597578      6.55172     -141.818 
0.00615673      18.7911     -124.155 
0.00592412      22.3652     -128.100 
0.00590068      13.5316     -121.399 
 0.0113394      6.80165     -128.134 
0.00585424      3.60624     -135.000 
 0.0111389     0.403113     -97.1250 
0.00583245      6.88222     -139.715 
0.00580842      22.8737     -127.897 
 0.0103919      19.3730     -123.526 
 0.0289616      11.8207     -119.384 
0.00570249      20.7511     -124.992 
0.00567307      6.86804     -132.049 
 0.0183255      5.30519     -136.528 
 0.0104654      18.5311     -124.891 
 0.0109387      13.4801     -123.042 
0.00565263      19.7323     -121.636 
 0.0260695      1.09772     -149.931 
0.00554716      12.8024     -120.772 
0.00550773      22.4354     -128.121 
0.00550550      18.7073     -123.775 
0.00545107      20.3806     -126.420 
0.00545518      18.9764     -121.093 
 0.0145785      6.05083     -144.077 
 0.0104103      22.9746     -128.017 
0.00530166      6.85000     -140.034 
0.00972704      18.4901     -124.979 
0.00521849      12.4424     -120.687 
0.00521699      19.6373     -121.464 
 0.0130207      5.79828     -135.000 
0.00517259      20.7799     -125.105 
0.00515909      19.2762     -123.360 
 0.0144539      6.81047     -127.543 
0.00512927      22.3960     -128.200 
0.00512933      6.59109     -142.087 
 0.0141198      18.9077     -121.042 
 0.0128626      18.6519     -123.520 
0.00501578      3.53624     -133.854 
0.00501325      13.6004     -121.470 
0.00493816      6.80147     -131.424 
0.00935558      20.4104     -126.533 
0.00492246      12.7516     -120.386 
0.00889100     0.400000     -90.0000 
0.00483144      6.84416     -139.444 
0.00911868      22.1546     -128.034 
0.00481217      13.5074     -123.219 
0.00475007      23.0140     -127.940 
0.00470886      6.36396     -135.000 
0.00469793      18.6387     -123.179 
0.00465692      20.0764     -121.869 
0.00462421      12.7696     -120.079 
0.00458814      6.36003     -143.310 
0.00455722      20.9314     -124.981 
0.00453157      22.5365     -128.243 
0.00449997      13.5349     -123.397 
0.00815710     0.350000     -90.0000 
0.00446808      23.0535     -127.864 
0.00853645      6.70075     -142.275 
0.00439904      6.95270     -139.667 
0.00437908      19.5686     -121.416 
0.00435124      6.58274     -128.524 
0.00434219      12.4854     -120.570 
0.00427365      13.6528     -121.827 
0.00423103      3.53836     -132.709 
0.00420574      6.04649     -124.216 
0.00781945      5.23450     -136.548 
0.00418896      22.7162     -128.207 
0.00811005      18.4779     -125.195 
0.00417432      13.4931     -123.513 
0.00415887      20.1453     -121.915 
0.00947246      6.93289     -133.247 
0.00797433      12.7632     -119.578 
0.00411520      20.9438     -124.790 
0.00408245      11.7772     -119.504 
0.00710975      4.81041     -136.685 
0.00404928      23.0930     -127.788 
 0.0112163      14.1245     -121.833 
0.00405739      18.6661     -123.307 
0.00403339      6.88059     -127.619 
0.00403104      19.3843     -125.658 
0.00774522      5.98101     -144.184 
0.00396699      13.5624     -123.573 
0.00395258      22.1854     -128.135 
0.00394758      20.6510     -122.844 
0.00393665      6.14431     -124.725 
0.00754116      18.9249     -120.834 
0.00392135      14.0064     -123.350 
0.00391311      12.4169     -120.489 
0.00391334      21.7037     -125.814 
0.00386560      4.03113     -136.005 
0.00385302      7.24051     -129.958 
0.00650799      6.92044     -139.982 
0.00382122      23.0842     -127.962 
0.00379662      20.1189     -121.794 
0.00586415      7.00179     -133.843 
0.00378416      11.4858     -119.466 
0.00793464      4.73973     -136.710 
0.00378246      14.6387     -121.736 
0.00377162      18.6243     -123.391 
 0.0215172      8.31219     -136.706 
0.00374298      20.3702     -126.617 
0.00374068      8.41204     -129.936 
0.00372878      19.1249     -122.942 
0.00370809      6.55934     -123.811 
0.00370618      22.5675     -128.343 
0.00987624      3.46771     -132.663 
0.00365246      6.67027     -142.615 
0.00364413      18.4082     -125.158 
0.00364102      6.01851     -123.822 
0.00363679      13.5486     -123.866 
0.00362459      23.0411     -127.417 
 0.0127106      14.6551     -121.467 
0.00358727      8.15138     -131.021 
0.00356561      14.0901     -123.126 
0.00356524      20.6239     -122.727 
0.00977601     0.777817      45.0000 
0.00683101      12.7386     -119.382 
0.00683208      8.41858     -129.457 
0.00651041      11.4422     -119.590 
0.00349579      22.4580     -128.401 
0.00347570      7.20850     -129.653 
0.00346618      12.3485     -120.407 
0.00346745      3.50464     -132.109 
0.00347225      18.9935     -120.886 
0.00345782      20.3301     -126.701 
0.00972554      6.53165     -123.447 
0.00581008      6.40020     -143.578 
0.00343398      21.6745     -125.707 
0.00341457      18.3674     -125.248 
0.00338829      19.5533     -123.528 
0.00338583      6.88840     -140.301 
0.00338077      23.0107     -127.318 
0.00334642      19.1750     -125.555 
0.00611744      5.92305     -144.968 
0.00625114     0.353553     -81.8699 
0.00332994      13.5765     -124.041 
0.00332996      5.99083     -123.425 
0.00722039      4.06725     -136.494 
0.00331980      20.1090     -121.477 
0.00330793      11.8643     -119.266 
0.00330170      18.5968     -123.263 
0.00326909      22.6377     -128.363 
0.00326426      7.27272     -130.259 
0.00327005      14.1048     -122.845 
0.00988351      4.91757     -137.060 
0.00324420      20.6781     -122.960 
0.00599417      11.3988     -119.714 
0.00321084      23.6812     -127.451 
0.00320989      19.3536     -120.938 
0.00320168      18.1397     -123.077 
0.00599241      20.3600     -126.814 
0.00318798      6.74036     -142.535 
0.00316332      5.46466     -122.672 
0.00597253      12.3916     -120.290 
0.00315785      8.28794     -131.576 
0.00316003      18.7794     -121.278 
0.00612521      23.1375     -128.331 
0.00311820      5.95189     -144.574 
0.00582396     0.320156      38.6598 
0.00311610      21.9835     -127.886 
0.00311185      18.3555     -125.465 
0.00311476      13.5351     -124.160 
0.00514299      7.30514     -130.559 
0.00311149      14.1320     -123.015 
0.00308220      7.34932     -140.244 
0.00307297      19.3619     -126.071 
0.00581715      18.5276     -123.218 
0.00796489      23.6508     -127.354 
0.00303362      8.44423     -130.197 
0.00452068      12.7822     -119.272 
0.00590012      17.8847     -125.556 
0.00300955      20.7473     -123.001 
0.00317465      14.6291     -121.300 
0.00298788      19.3709     -120.735 
0.00295694      14.1510     -122.005 
0.00295617      7.46676     -137.442 
 0.0103614      1.77553     -147.653 
0.00540670      5.96343     -123.024 
 0.0104709      11.8400     -119.055 
0.00294485      18.9679     -120.757 
0.00560055      8.32001     -126.939 
0.00546980      8.38287     -136.692 
0.00291985      18.1125     -122.944 
0.00290909      19.5205     -126.459 
0.00290778      13.6046     -124.216 
0.00290734      5.99270     -144.851 
0.00290919      21.8953     -125.614 
0.00288947      23.6415     -127.524 
 0.0191452      5.45000     -123.398 
0.00286464      6.81047     -142.457 
0.00286223      3.07002     -142.943 
0.00797314      12.7142     -119.186 
0.00283623      18.7945     -122.506 
0.00283115      14.1775     -122.177 
0.00283468      8.62699     -135.470 
0.00283095      23.1294     -128.505 
 0.0206141      1.34629     -121.329 
0.00562024      7.81697     -129.289 
0.00281151      17.3223     -122.864 
0.00280602      20.1257     -121.281 
0.00281538      25.6287     -129.061 
0.00279353      14.6460     -121.031 
0.00277848      3.43839     -130.872 
0.00537256      6.47708     -122.709 
0.00682811      4.84691     -137.090 
0.00276861      21.1400     -126.924 
0.00276042      13.7023     -124.444 
0.00527237      7.37055     -131.149 
0.00273643      22.4891     -128.501 
0.00272874      21.5756     -125.569 
0.00271509      18.2858     -125.428 
0.00271595      14.1033     -123.577 
0.00270326      20.1684     -121.207 
0.00270308      8.62786     -135.939 
0.00268538      19.5503     -126.577 
0.00268449      24.7551     -128.027 
0.00267691      13.5146     -120.455 
0.00267331      22.9600     -126.945 
0.00266346      19.0109     -120.679 
0.00743188      17.2952     -122.725 
0.00265527      1.32098     -119.476 
0.00263819      20.7746     -123.116 
0.00264054      7.50367     -137.701 
0.00952578      18.0128     -125.852 
0.00270757      4.10670     -137.961 
0.00477012      7.78540     -129.005 
0.00906383     0.403113     -82.8750 
0.00260905      18.4584     -123.174 
0.00260277      14.1032     -119.291 
0.00504777      5.96406     -145.244 
0.00260599      19.0715     -126.149 
0.00259291      13.5915     -124.509 
0.00495908      25.5899     -129.132 
0.00493215      3.37380     -129.588 
0.00257254      19.4139     -120.660 
0.00463286      11.3306     -119.619 
0.00255046      22.5594     -128.521 
0.00254597      8.30060     -126.180 
0.00253399      18.6848     -121.095 
0.00252524      19.7500     -126.870 
0.00252218      23.1997     -128.525 
0.00483877      14.0760     -124.142 
0.00252266      6.78012     -142.792 
0.00252177      18.1545     -122.858 
0.00250883      22.6108     -125.096 
0.00446300      22.0509     -124.375 
0.00890305      8.66271     -135.702 
0.00246815      3.74066     -142.058 
0.00638771      14.0983     -118.838 
0.00244860      13.5220     -124.454 
0.00245336      19.0608     -126.359 
0.00801515      3.08058     -144.246 
0.00243680      12.3665     -120.090 
0.00242586      21.5465     -125.460 
0.00351300      16.4671     -122.098 
0.00241849      20.7892     -122.926 
0.00242129      24.7637     -127.865 
0.00241409      7.20850     -140.347 
0.00241322     0.471699      32.0054 
0.00240692      8.50412     -131.186 
0.00239282      18.9854     -120.550 
0.00239042      17.2803     -122.954 
0.00238293      22.5203     -128.600 
0.00237845      13.8825     -124.434 
0.00238231      5.26901     -136.153 
0.00656331      11.3741     -119.495 
0.00236203      20.1168     -120.964 
0.00235554      20.1701     -127.040 
0.00235812      7.75403     -128.718 
0.00455319      6.45019     -122.335 
0.00234711      23.0203     -127.144 
0.00646204      7.57793     -138.209 
0.00232825      18.1965     -122.773 
0.00669951      8.51543     -120.329 
0.00232023      19.0904     -126.480 
0.00230923      15.4972     -121.947 
0.00853563      22.0922     -124.301 
0.00576230      12.7578     -119.076 
0.00285526      4.21930     -139.325 
0.00229253      18.6162     -121.043 
0.00228341      19.6701     -127.045 
0.00446788      13.5093     -124.749 
0.00228349      6.92694     -140.565 
0.00228201      16.4248     -122.190 
0.00228035      8.31174     -125.698 
0.00227534      23.4807     -128.603 
0.00227653      19.3885     -120.533 
 0.0110256      3.34216     -128.928 
0.00440360      12.3233     -120.206 
0.00403059      7.33774     -130.855 
0.00224990      3.04385     -137.663 
0.00224620      14.6813     -121.633 
0.00224206      26.2376     -128.967 
0.00224360      18.2044     -125.611 
0.00222172      21.9046     -128.047 
0.00221614      20.8019     -123.232 
0.00220014      5.93570     -145.641 
0.00412293      17.2683     -122.586 
0.00219050      23.2621     -128.718 
0.00219123      9.30390     -133.040 
0.00218510      17.9430     -125.816 
0.00600110      21.1498     -122.939 
0.00586003      24.7331     -127.773 
0.00446797      13.9393     -124.773 
0.00414659      18.5905     -120.911 
 0.0108182      14.0743     -118.659 
0.00374792      4.42041     -142.352 
0.00406432      8.28266     -125.417 
0.00215689      19.7003     -127.161 
0.00329553      16.3982     -122.042 
0.00214778      6.84105     -142.125 
0.00214065      19.4315     -120.458 
0.00783785      15.5133     -121.692 
0.00554079     0.360555      33.6901 
0.00212639      18.1274     -122.726 
0.00402898      23.6205     -127.258 
0.00410809      19.1501     -126.720 
0.00210974      14.8106     -123.851 
0.00414416      9.34050     -132.831 
0.00401909      13.3111     -126.138 
0.00404412      6.00521     -145.516 
0.00209694      23.5510     -128.622 
0.00397755      11.8158     -118.843 
0.00208240      22.6518     -125.023 
0.00208118      18.4730     -122.959 
0.00207772      20.1341     -120.769 
0.00206888      22.5125     -128.779 
0.00206052      8.49029     -120.038 
 0.0125418     0.364005     -74.0546 
0.00205124      7.24707     -140.599 
0.00205091      17.2261     -122.675 
0.00701742      4.50000     -143.130 
0.00204463      18.9600     -120.420 
0.00203882      20.2002     -127.154 
0.00203851      13.4392     -119.904 
0.00370484      25.6215     -129.219 
0.00202037      8.29473     -124.935 
0.00237051      21.8653     -128.128 
0.00517649      16.3558     -122.135 
0.00558748      26.2062     -128.882 
0.00201905      20.8291     -123.843 
0.00265964      12.6899     -118.989 
0.00199965      6.42359     -121.958 
0.00200233      5.23307     -135.774 
0.00200024      6.72012     -143.471 
0.00386980      12.6129     -125.643 
0.00612324      2.20227     -129.472 
0.00452736      18.2161     -125.391 
0.00196426      5.49181     -123.111 
0.00196397      14.5619     -120.087 
0.00196157      23.2231     -128.795 
0.00196302      13.4682     -124.870 
0.00196856      8.54239     -123.783 
0.00196839      19.4062     -120.331 
0.00195148      9.37723     -132.623 
0.00194465      20.1775     -123.375 
0.00193953      14.0500     -124.708 
0.00193416      8.53361     -119.870 
0.00467436      21.1078     -123.012 
0.00366670      12.2801     -120.324 
0.00889651      3.38120     -128.395 
0.00375840      17.9319     -126.039 
0.00192598      22.5828     -128.798 
0.00190847      8.27587     -136.469 
0.00190296      19.7608     -127.392 
0.00189116      19.0285     -120.473 
0.00188946      6.37064     -143.940 
0.00188185      22.7214     -125.054 
0.00188039      9.41409     -132.417 
0.00187527      18.5648     -120.779 
0.00187274      5.89428     -122.881 
0.00207722      14.8665     -124.171 
0.00186925      16.8809     -122.419 
0.00187501      6.96724     -133.546 
0.00186218      21.8962     -128.231 
0.00784832      12.6657     -118.791 
0.00185894      17.9355     -122.361 
0.00517151      8.66213     -135.234 
0.00249401      19.3501     -127.018 
0.00185024      8.50882     -119.578 
0.00184756      13.9966     -125.109 
0.00356417      23.6136     -128.811 
0.00185124      20.1516     -120.574 
0.00517652      11.3496     -119.275 
0.00183537      5.51928     -123.546 
0.00614158      4.54010     -143.509 
0.00182742      19.4243     -120.129 
0.00353006      8.26620     -124.651 
