! Center RA: 16 53 52.21670,  Dec: +39 45 36.60890 (2000.0)
! Established model.
! Flux (Jy) Radius (mas)  Theta (deg)  Major FWHM (mas)  Axial ratio   Phi (deg) T \
! Freq (Hz)     SpecIndex
 0.0812756      0.00000      0.00000 
 0.0109624    0.0282843      135.000 
 0.0100580    0.0894427     -63.4349 
 0.0141520    0.0447214      116.565 
 0.0163634     0.107703     -68.1986 
0.000835978    0.0400000      90.0000 
0.00316246    0.0600000      90.0000 
0.000746984    0.0632456      71.5651 
0.000731125    0.0894427      26.5651 
 0.0125265     0.126491     -71.5651 
0.00141098    0.0632456      108.435 
0.000707573     0.107703      21.8014 
0.00324367     0.141421      8.13010 
0.00132346    0.0721110      123.690 
0.00183694    0.0721110      146.310 
0.000600204     0.100000      36.8699 
0.00116192     0.160000      0.00000 
0.00110062    0.0848528      135.000 
0.00162229     0.116619      30.9638 
0.00209659    0.0894427      153.435 
0.00159066     0.181108     -6.34019 
0.00145200     0.113137      45.0000 
0.000966978     0.184391     -12.5288 
0.000940248     0.100000      143.130 
0.00133626     0.203961     -11.3099 
0.00289881     0.128062      38.6598 
0.00168734     0.107703      158.199 
0.00374252     0.121655     -80.5377 
0.00299473     0.208806     -16.6992 
0.00331385     0.116619      149.036 
0.00452549     0.141421      45.0000 
0.00215627     0.215407     -21.8014 
0.00353660     0.145602     -74.0546 
0.000627045     0.126491      161.565 
0.00244303     0.134164      153.435 
0.000287888     0.200998     -5.71059 
0.000281814     0.120000     -90.0000 
0.000274967     0.200000      53.1301 
0.000779064     0.200000      0.00000 
0.000527105     0.107703     -158.199 
0.000265488     0.205913     -29.0546 
0.000519408     0.216333      56.3099 
0.00246503     0.223607     -26.5651 
0.00132638     0.116619     -149.036 
0.00135543     0.228035      52.1250 
0.00168375     0.200998      5.71059 
0.00225609     0.144222      146.310 
0.000216177     0.152315     -66.8014 
0.00156354     0.216333     -33.6901 
0.00143725     0.126491     -161.565 
0.00159682     0.244131      55.0080 
0.000602554     0.128062      51.3402 
0.00182919     0.116619      59.0362 
0.000511565     0.220000      0.00000 
0.00102201     0.156205      140.194 
0.00155775     0.220907      5.19443 
0.00140465     0.170880     -69.4440 
0.000499392     0.134164     -153.435 
0.00141070     0.256125      51.3402 
0.00126726     0.172047      144.462 
0.00116621     0.145602     -164.055 
0.00141423     0.233238     -30.9638 
0.00115816     0.241661     -24.4440 
0.000485476     0.460000      90.0000 
0.000907336     0.312410      140.194 
0.000302116     0.384708      117.897 
0.000544022     0.223607      10.3048 
0.00106317     0.402492      116.565 
0.000743730     0.417612      73.3008 
0.000329289     0.161245     -172.875 
0.000113218     0.549181      146.889 
0.000996964     0.481664      94.7636 
0.000947486     0.576888      146.310 
0.00126708     0.411825      119.055 
0.000296775     0.325576      137.490 
0.000543850     0.269072      48.0128 
0.000198093     0.243310      9.46232 
0.000663466     0.820975      145.923 
0.000872258     0.164924     -75.9638 
0.000100161     0.181108      173.660 
0.000282384     0.609262      113.199 
9.97044e-05     0.254558      45.0000 
0.000280747     0.601664      111.448 
0.000997444     0.107703      68.1986 
0.000708757     0.180000      180.000 
0.00152741     0.423792      70.7100 
0.00102694     0.566039      147.995 
0.000561864     0.278568      21.0375 
0.000505524     0.297321      137.726 
0.000168773     0.188680      147.995 
0.000561900     0.240832      4.76364 
0.000399108     0.128062     -141.340 
0.000335808     0.816088      143.973 
0.000752141     0.200000      143.130 
0.000789271     0.593633      122.619 
0.000962417     0.620323      110.772 
0.000582702     0.868332      151.074 
0.000954455     0.404969      69.7751 
0.000206215     0.828010      142.853 
0.000531296     0.272029      53.9726 
0.000960409     0.593633      147.381 
0.000328591     0.840238      141.766 
0.000581585     0.200998      174.289 
0.000274752     0.161245     -82.8750 
7.16305e-05     0.868332      141.546 
0.000397078      1.04403      143.569 
0.000517942     0.311127      135.000 
0.000434676     0.250599     -28.6105 
0.000321624     0.752861      106.991 
0.000365817     0.240000      0.00000 
0.000632919     0.639062      110.136 
0.000726073     0.501597      94.5739 
0.000851059     0.876584      152.850 
0.000674829     0.297321      19.6538 
0.000238383     0.852760      140.711 
0.000626694     0.144222     -146.310 
0.000183425     0.189737     -71.5651 
0.000390412     0.121655      80.5377 
6.22609e-05      1.05603      142.696 
0.000802828     0.244131     -34.9920 
0.00123399     0.772010      106.557 
5.96965e-05      1.06827      141.843 
0.000274785      1.08074      141.009 
0.000806274     0.604649      124.216 
0.000700291     0.184391     -77.4712 
0.000163717      1.03228      144.462 
0.000519007     0.220907      174.806 
0.000408209     0.277849      59.7436 
0.000382741     0.240832     -4.76364 
5.11669e-05     0.865563      139.686 
0.000226325      1.09343      140.194 
0.000350592      1.03730      146.004 
0.000141708     0.800000      143.130 
4.86617e-05     0.893756      139.538 
0.000449722     0.312410      129.806 
0.000265329      1.10000      126.870 
0.000333153     0.141421     -135.000 
0.000343920      2.74875      141.796 
0.000291440      1.07815      139.514 
0.000573363     0.216333      146.310 
0.000131334     0.878635      138.691 
0.000460645      1.41450      123.465 
0.000282699      1.10436      125.417 
0.000161458     0.240832      175.236 
0.000498418      3.36482      140.064 
0.000737709      2.92205      139.441 
0.000253219     0.788162      144.293 
0.000338115     0.280713      175.914 
0.000268236     0.297321      132.274 
0.000234864      2.34913      132.930 
8.22090e-05      2.93510      139.145 
0.000194344      3.31306      144.583 
4.08641e-05     0.260768     -4.39871 
5.47655e-05     0.906863      138.576 
0.000143111      3.03117      138.209 
0.000345754     0.304631      23.1986 
0.000558849      2.73642      142.125 
0.000187317     0.263059     -8.74616 
0.000414653      1.44803      147.407 
0.000418975      3.29679      144.382 
0.000338468      3.03210      149.036 
0.000288230     0.891964      137.726 
0.000113493     0.772010      163.443 
0.000485319     0.316228      18.4349 
0.000309467      2.25397      131.042 
0.000107646      1.06301      138.814 
0.000497696      9.63863      131.130 
0.000184189      3.36743      140.543 
0.000137654      1.11212      127.694 
0.000100180      3.04454      137.929 
0.000171003      1.43122      123.024 
3.57573e-05      1.02626      146.929 
0.000397538     0.766551      164.876 
7.00229e-05      1.12606      123.408 
0.000158548     0.885889      151.699 
0.000435463     0.286356      65.2249 
0.000278405     0.240832     -41.6335 
0.000410087     0.796994      107.526 
6.72210e-05      3.13209      143.569 
0.000367578      2.86775      149.859 
0.000237260     0.316228      124.695 
0.000274327     0.266833     -12.9946 
3.43293e-05      3.17036      150.524 
9.60971e-05      1.05395      146.611 
6.76463e-05      3.07044      136.848 
0.000287221      3.00147      132.299 
-0.000129968      6.77324      138.591 
6.72999e-05      3.38018      140.281 
0.000149484      2.36279      133.285 
9.83821e-05      1.14280      122.856 
0.000261442     0.616117      125.754 
0.000115357      1.06151      137.291 
8.92708e-05      1.04307      147.529 
0.000322642      2.52958      146.938 
9.48943e-05     0.500400      92.2906 
0.000148240     0.436807      164.055 
0.000176569      3.18779      150.701 
0.000154886      3.05588      136.591 
0.000175785      2.63644      127.913 
3.21774e-05     0.322490      119.745 
9.23428e-05      1.10887      140.856 
6.32615e-05      1.44803      122.593 
0.000204926      1.10887      129.144 
8.87799e-05     0.375766      115.201 
0.000200684     0.561427     -4.08562 
8.99838e-05     0.233238      149.036 
9.08737e-05      1.15966      122.320 
0.000118193      1.46492      122.171 
9.33870e-05      5.97478      147.161 
8.55777e-05      3.16006      143.493 
-0.000141597      6.76003      138.718 
0.000195933      12.0934      136.005 
0.000111443      1.39270      125.059 
0.000112602     0.520384      92.2026 
2.92195e-05     0.340000      118.072 
0.000111085      1.79109      150.573 
0.000110651      2.24089      130.657 
8.31569e-05     0.776660      145.491 
5.64904e-05      1.04690      136.548 
0.000110993      3.66344      148.392 
0.000137445      1.13208      122.005 
0.000110562      1.42042      147.653 
2.87181e-05     0.300666      176.186 
5.52788e-05     0.393954      113.962 
0.000106414      1.78135      151.133 
0.000175696     0.323110      21.8014 
8.30110e-05      3.06966      136.320 
5.54764e-05      1.12446      141.499 
-8.27444e-05      4.05265      131.399 
8.19058e-05      6.00243      147.104 
5.45896e-05     0.627694      112.479 
8.17804e-05      1.47146      121.097 
5.40609e-05      1.92800      126.989 
5.37056e-05      8.11566      148.503 
2.69102e-05      3.64642      148.228 
-2.66746e-05      11.6225      137.580 
2.66658e-05     0.181108     -83.6598 
2.64805e-05      2.66008      136.828 
4.46549e-05      1.03325      137.353 
4.78156e-05      1.37361      137.951 
0.000643450     0.876812      135.000 
0.000221126     0.636553      136.273 
0.000376943     0.205913      150.945 
0.000546812     0.622896      137.603 
0.000376086      3.06809      142.682 
0.000278600     0.891067      134.091 
5.05984e-05     0.905097      135.000 
0.000275676      1.16825      141.953 
8.11614e-05      1.34536      138.013 
0.000385962      1.35882      137.386 
4.83837e-05     0.404969      159.775 
0.000333520     0.588558      99.7824 
0.000215015     0.423792      160.710 
0.000173449      3.08402      142.907 
0.000246892     0.196977      156.038 
0.000127241      1.04690      133.452 
0.000460083      3.12698      136.814 
0.000265665      2.89834      148.833 
4.14813e-05      2.51873      147.319 
0.000119642      1.35794      136.193 
0.000287772     0.300000      126.870 
0.000118301      3.07877      146.929 
0.000326227      2.50192      147.072 
0.000149876      1.18406      142.549 
0.000512720     0.400000      90.0000 
7.80802e-05     0.627694      157.521 
0.000216041      2.88804      149.172 
3.91545e-05      2.85125      145.864 
3.88432e-05      3.09613      142.612 
0.000143609      1.06151      132.709 
3.80213e-05      1.37186      135.591 
0.000206584     0.611882      101.310 
0.000332719      1.70294      130.236 
0.000141810      3.22416      142.561 
0.000168395      2.83471      145.637 
3.71517e-05      1.41450      133.854 
0.000277522      3.14070      136.548 
0.000434309      2.34887      141.569 
0.000210017     0.398497      162.474 
0.000247192      3.08972      146.619 
0.000106034      1.21211      142.374 
0.000225043     0.646220      158.199 
0.000154862     0.637809      138.814 
0.000102143      2.63287      137.463 
0.000148177      1.44278      133.877 
0.000167019      1.11140      120.256 
0.000104084      2.84788      150.555 
3.55567e-05     0.286356      24.7751 
0.000134181      3.34574      144.980 
6.80995e-05     0.189737      161.565 
0.000256412      2.95256      139.946 
3.48419e-05      1.32076      122.005 
0.000234994      1.33776      121.551 
0.000314416      1.38679      146.768 
9.46345e-05      2.62800      143.043 
6.54687e-05      1.54777      122.869 
0.000151938      2.83810      150.906 
0.000235472      3.57435      148.266 
0.000139189     0.862786      134.061 
0.000176898     0.181108     -173.660 
0.000170648      1.07629      131.987 
0.000121489      5.64624      149.802 
9.20105e-05      1.73113      130.314 
3.12879e-05      1.11606      143.746 
9.09880e-05      1.57544      123.085 
0.000141091      3.23636      142.280 
0.000187006     0.816333      149.036 
9.43509e-05      5.68007      148.829 
0.000406202      2.61817      137.167 
3.04805e-05      1.42899      133.299 
0.000510505      1.10145      119.358 
0.000237482      3.36214      145.176 
0.000110007      2.49110      147.458 
0.000112483      2.81091      151.064 
8.50176e-05      1.10436      144.583 
0.000218935      2.33324      141.263 
0.000213411     0.608276      99.4623 
0.000197399      1.34715      139.214 
0.000230566      2.94170      134.449 
5.77118e-05      1.75932      130.389 
5.64382e-05      1.45726      133.332 
3.81230e-05      1.63083      123.495 
2.84400e-05      5.61890      149.876 
5.75083e-05      3.12621      136.296 
3.82748e-05      1.65855      123.690 
9.91400e-05      2.60000      143.130 
0.000133739      5.60889      150.052 
0.000217489      2.11358      150.524 
4.43421e-05      1.78751      130.462 
0.000193870      5.69045      148.656 
7.61579e-05      2.84007      146.198 
0.000185073      1.08407      119.876 
0.000151228      1.56461      122.471 
0.000127844      1.82800      126.995 
0.000215637     0.316228     -34.6952 
0.000162591     0.833547      149.744 
6.84541e-05      2.72419      142.457 
0.000158825     0.639062      159.864 
0.000204982     0.184391     -167.471 
8.70426e-05      1.40357      130.956 
5.08983e-05      2.47427      147.209 
7.58421e-05      3.67837      147.433 
0.000208740      2.28674      129.677 
0.000239930      1.09289      145.437 
0.000163100      2.82347      145.972 
0.000205367      2.82843      151.260 
9.41036e-05      3.54683      148.371 
0.000169983      1.77234      130.882 
0.000164616      5.58158      150.128 
6.47885e-05      2.93728      139.695 
0.000108434      1.31027      121.264 
4.74231e-05      3.25220      142.496 
6.20470e-05      2.12349      150.054 
2.41229e-05      1.67475      130.156 
0.000109091      1.09124      131.285 
6.59896e-05      3.14159      137.064 
2.38166e-05      1.33417      139.865 
0.000230992      3.70600      147.339 
6.73065e-05      2.25858      129.611 
0.000105030     0.791202      106.144 
0.000126181      1.47105      133.898 
8.82962e-05     0.332866     -32.7352 
0.000202193      5.70088      148.485 
0.000219968      1.80056      130.946 
8.02580e-05      3.11949      139.160 
0.000135230      2.14149      145.271 
0.000106867      1.40357      147.216 
8.68658e-05     0.364966     -9.46232 
0.000403872      1.84402      126.621 
0.000145763      3.28494      151.250 
0.000108503      1.68772      130.675 
6.18608e-05      2.13101      150.789 
0.000184317      2.82899      146.535 
6.35067e-05      3.35076      145.456 
0.000179357      1.55396      121.849 
8.34834e-05      2.44663      147.349 
2.22956e-05     0.613514      160.974 
2.21206e-05      3.26441      142.217 
8.14312e-05     0.860930      149.265 
6.31973e-05      1.34952      140.412 
8.82806e-05      3.11743      146.514 
6.21262e-05      2.12509      144.964 
2.15240e-05      5.63620      149.978 
4.17808e-05      3.28024      142.431 
0.000266975     0.305941     -168.690 
2.13022e-05      1.06301      131.186 
8.11653e-05      5.55428      150.204 
2.11396e-05      1.41450      146.535 
0.000176299      6.83947      146.449 
0.000206056      2.91342      134.444 
3.98923e-05     0.302655     -172.405 
8.03060e-05      3.46237      152.103 
2.06631e-05      2.74007      142.712 
2.05989e-05     0.368782     -12.5288 
7.32497e-05      3.47477      148.414 
0.000432967     0.200000     -90.0000 
0.000145128      5.66353      149.904 
0.000114132     0.632456      161.565 
8.65196e-05      5.36436      147.021 
0.000124431      2.27403      129.289 
0.000178645      6.93204      143.328 
5.24934e-05      2.57200      143.219 
3.87188e-05      5.25304      146.491 
1.97517e-05      3.07200      143.205 
0.000110313      2.84598      151.454 
5.56427e-05      1.46479      145.008 
0.000114166     0.816088      107.103 
0.000105316     0.328024     -37.5686 
0.000146610      3.29612      142.643 
0.000132746      2.92773      134.170 
5.53733e-05      5.35350      147.200 
1.90032e-05     0.392938     -14.7436 
0.000215086      6.05670      139.419 
0.000102308      1.08167      146.310 
1.88602e-05      2.39140      147.639 
1.87521e-05      1.40584      129.806 
0.000414363      8.92558      144.209 
2.88655e-05      1.84043      137.643 
0.000375508      1.07815      130.486 
8.69985e-05     0.388330     -11.8887 
1.84830e-05     0.640312      141.340 
0.000118565      5.71136      148.314 
0.000454763      11.5855      140.815 
0.000375030      4.84487      142.042 
0.000125822      5.23637      146.371 
0.000251617      1.36029      138.576 
0.000190308      4.47214      153.435 
0.000214672      2.64764      132.245 
3.55852e-05      2.46349      147.600 
1.81332e-05      1.39284      147.907 
6.53929e-05      5.52699      150.281 
0.000158220      3.73363      147.246 
1.79715e-05      3.36309      153.130 
0.000200322      5.32755      148.040 
0.000177576      1.32740      120.816 
0.000215133      3.80526      140.117 
1.78305e-05      3.64049      152.872 
0.000195898      6.65086      146.406 
0.000131254      1.82702      138.106 
0.000104859      5.55817      146.596 
0.000103338      6.85615      146.542 
0.000278816      4.49003      153.549 
4.98117e-05      2.15564      152.959 
3.13697e-05     0.644050      143.842 
1.72579e-05      3.63142      153.153 
3.37729e-05      1.38232      148.610 
0.000139498      1.54350      121.218 
4.95248e-05      5.41025      144.782 
0.000144111      2.75224      142.381 
1.70009e-05     0.379473      161.565 
0.000128124      3.35410      153.435 
9.84649e-05      2.36381      147.789 
0.000142949      6.91601      143.230 
0.000147750      2.83648      151.809 
7.72555e-05      3.64927      153.295 
1.63207e-05      1.80854      150.884 
4.65524e-05      1.47635      144.372 
3.06350e-05     0.657875      160.463 
7.65517e-05      7.76343      147.948 
0.000155224      8.05546      141.451 
4.38783e-05      1.87200      126.747 
0.000316656      3.84926      137.106 
0.000124251      11.6010      140.877 
9.41756e-05     0.400500      87.1376 
0.000172567     0.384708     -8.97263 
1.58799e-05     0.660303      144.866 
1.58516e-05      3.35726      144.700 
0.000110336      1.37201      149.323 
0.000265182      7.12522      142.069 
0.000286075      3.83885      151.699 
0.000114617      2.83478      147.095 
0.000211974      8.03983      141.362 
4.41374e-05      3.26741      151.082 
0.000175815      4.10000      143.130 
6.88799e-05      2.50799      147.704 
0.000107056     0.585491      97.8533 
6.00898e-05      5.64128      141.911 
4.53616e-05      2.28954      128.972 
1.55471e-05      7.78039      148.026 
0.000332985      5.69087      149.831 
0.000151413      2.11367      145.408 
7.02193e-05     0.600000      126.870 
7.19965e-05      7.20650      147.236 
2.87155e-05      3.13465      139.399 
2.88641e-05      5.38238      144.834 
0.000149270      2.10761      133.847 
0.000184502     0.344093     -35.5377 
7.07095e-05      2.85412      151.998 
1.50492e-05      2.17348      153.199 
0.000201927      1.54777      154.759 
0.000219303      8.35208      142.883 
4.31320e-05      5.81095      148.225 
2.91191e-05      3.40969      136.664 
0.000263031      6.88387      146.495 
9.63508e-05      9.60802      136.940 
1.44863e-05      2.92500      152.734 
0.000145357      2.13242      113.199 
7.23455e-05      3.45774      148.241 
5.21779e-05      2.16453      153.672 
2.82042e-05      2.31767      129.046 
2.72333e-05      5.39392      144.660 
0.000155960      8.02419      147.934 
8.77420e-05     0.203961     -168.690 
5.07526e-05      3.37360      144.897 
1.41665e-05      7.77406      147.823 
9.53582e-05      5.82687      139.036 
0.000126859      4.05744      156.468 
6.90314e-05      2.10618      149.783 
6.49937e-05      5.51710      150.461 
