! Center RA: 22 32 36.40891,  Dec: +11 43 50.90394 (2000.0)
! Established model.
! Flux (Jy) Radius (mas)  Theta (deg)  Major FWHM (mas)  Axial ratio   Phi (deg) T \
! Freq (Hz)     SpecIndex
   2.12288      0.00000      0.00000 
 0.0476560    0.0200000     -90.0000 
 0.0139923    0.0282843     -45.0000 
0.00526069    0.0894427      116.565 
0.00252490    0.0824621      104.036 
0.00246037     0.116619      120.964 
 0.0197812     0.107703      111.801 
 0.0409668    0.0400000     -90.0000 
0.00451831     0.144222      123.690 
 0.0299840     0.134164      116.565 
 0.0367842    0.0600000     -90.0000 
0.00374313     0.172047      125.538 
0.00718519     0.100000      90.0000 
 0.0120235    0.0894427      63.4349 
0.00342225     0.200000      126.870 
0.00710922     0.240832      131.634 
 0.0141258    0.0632456     -108.435 
0.00515949     0.256125      128.660 
0.000783494     0.269072      131.987 
0.00682045     0.284253      129.289 
0.00415830     0.100000      53.1301 
0.000597556     0.156205      129.806 
0.00172947     0.300000      126.870 
0.00113259     0.169706      135.000 
0.00160400     0.288444      123.690 
0.000539608     0.184391      139.399 
0.00150920     0.200000      143.130 
0.00501787     0.305287      121.608 
0.00187613     0.113137      45.0000 
0.000936097     0.216333      146.310 
0.000885740     0.205913      150.945 
 0.0102109    0.0800000     -90.0000 
0.00242915     0.134164      26.5651 
0.00383103     0.223607      153.435 
0.00399875     0.332866      122.735 
0.00256802     0.152315      23.1986 
0.00157662     0.128062      38.6598 
0.00371630     0.349857      120.964 
0.00183998     0.388330      145.491 
0.00332022     0.449444      122.276 
0.00320671     0.241661      155.556 
0.00157401     0.340000      118.072 
0.00119892     0.477074      123.024 
0.00113532     0.568507      129.289 
0.00150057     0.609590      131.009 
0.000527313     0.144222      33.6901 
0.00421396     0.404969      147.095 
0.00139246     0.170880      20.5560 
0.000910988     0.439090      120.069 
0.00280814     0.676757      124.160 
0.000248380     0.116619      59.0362 
0.000662402     0.260000      157.380 
0.00268978     0.252982      161.565 
0.000676126     0.120000      90.0000 
0.000856811     0.581378      130.815 
0.000430098    0.0824621     -104.036 
0.000608995     0.184391      12.5288 
0.00283003     0.100000     -90.0000 
0.00129597     0.121655      80.5377 
0.00196000     0.594643      132.274 
0.00312462      1.98040      128.027 
0.00122097     0.200000      0.00000 
0.00358772     0.693397      123.232 
0.00253954      1.50013      132.839 
0.00232441     0.272029      162.897 
0.000938824     0.200998     -5.71059 
0.00142579     0.126491      71.5651 
0.000706287     0.608276      133.668 
0.000158837     0.286356      114.775 
0.000512784     0.693397      146.768 
0.00221335     0.220907     -5.19443 
0.00216355     0.682642      148.173 
0.000297650     0.100000     -126.870 
0.000147313      1.51486      132.325 
0.000145837     0.266833      167.005 
0.000831427      1.61443      131.987 
0.000802195     0.184391     -167.471 
0.00122782      1.97717      128.841 
0.000841600     0.278568      111.038 
0.000892420      1.60112      131.455 
0.00171931     0.278568      158.962 
0.000855870      1.48553      133.363 
0.000129138      2.04010      127.432 
0.000368055      1.96163      129.207 
0.000125142     0.220907     -174.806 
0.00323016      2.06814      127.535 
0.000123719     0.377359      147.995 
0.00102007      1.85267      135.437 
0.00102105     0.721110      123.690 
0.000241082      1.64268      132.039 
0.000121218     0.140000      90.0000 
0.00115955     0.203961     -168.690 
0.000987188      1.95898      130.030 
0.00154094     0.203961     -11.3099 
0.000574087      1.58795      130.914 
0.000553702      1.48809      143.746 
0.000412710     0.189737      18.4349 
0.000843368      1.47105      133.898 
0.000416731     0.141421      81.8699 
0.000815751     0.223607     -10.3048 
0.000638301      1.57493      130.365 
0.000416090     0.622896      132.397 
0.00145759     0.828010      127.147 
0.000306203      1.47201      143.286 
0.000202246      1.60312      130.446 
0.000293662     0.247386      104.036 
0.000979399      1.94371      130.409 
0.000738838     0.699714      149.036 
0.000395731      1.50000      143.130 
0.000286206      1.48499      134.454 
0.000697644      1.95673      130.855 
0.000739198     0.466476      120.964 
0.000665443      1.56205      129.806 
0.000333625      1.48405      142.667 
9.58252e-05     0.636553      133.727 
0.000136510      1.88096      135.431 
9.46624e-05      1.59022      129.898 
0.000272818      2.09619      127.635 
0.000535267     0.277849      149.744 
0.00171187      1.47078      135.000 
0.000339490      1.81041      135.895 
0.000336793     0.288444      146.310 
0.000337228     0.493964      121.759 
0.000472547      1.79611      135.451 
0.00148905     0.504777      123.690 
0.000161779     0.305287      148.392 
0.000160320      1.76782      135.458 
0.000609903     0.372022      143.746 
0.000303598     0.107703     -111.801 
0.000154457      1.74264      148.134 
0.000153665      1.92852      130.795 
0.000152030     0.268328      153.435 
0.000295487      1.75966      148.478 
0.000147474      1.75362      135.000 
0.000290773     0.752861      129.611 
0.000920514     0.189737     -161.565 
0.000651579      1.97190      130.475 
0.000142889     0.160000      90.0000 
0.000676883      1.77674      148.815 
0.000278325     0.400000      143.130 
0.000140699      1.62788      132.510 
0.000412727     0.768375      128.660 
0.000535672      1.46492      141.096 
0.000138545     0.584123      128.047 
0.000438739      1.88223      132.847 
0.000272363      2.04900      128.660 
0.000265862     0.180000      90.0000 
0.000133920      1.89842      131.583 
0.000960656      1.45671      134.444 
0.000510440     0.416173      144.782 
0.000132385     0.624820      129.806 
0.000628809     0.796492      128.884 
0.000258183      2.06465      128.313 
0.000127138     0.637809      131.186 
0.000249833      1.79388      149.146 
0.000698044      1.44941      140.599 
0.000745591     0.200000      90.0000 
0.000242819     0.638122      147.804 
0.000123915      2.05232      127.875 
0.000222603      1.86762      133.264 
0.000235466      2.40707      151.731 
0.000240998     0.651153      132.510 
0.000120667      1.78370      149.697 
0.000225936      1.45245      141.710 
0.000345516      2.39767      152.152 
0.000346811      1.80100      150.018 
0.00106749      1.44250      135.000 
0.00116542     0.812158      127.999 
0.000115642      1.85311      133.688 
0.000115311     0.648999      146.310 
0.000114260     0.181108      83.6598 
0.000886443     0.208806     -163.301 
0.000428475     0.432666      146.310 
0.000222338     0.679412      132.614 
0.000686261     0.665733      147.265 
0.000428543      1.80854      150.884 
0.000109750      1.78281      136.818 
0.000108748      1.86869      132.397 
0.000194161      2.26354      152.076 
0.000582197      1.96987      131.295 
0.000106954     0.664831      133.781 
0.000402405      2.42471      151.955 
0.000400741      1.43680      141.216 
0.000196865     0.141421     -98.1301 
0.000201909     0.678822      135.000 
0.000198632      1.79744      137.255 
0.000953417      6.09452      155.369 
0.000297689      1.79889      151.440 
0.000192913      2.25424      152.526 
0.000476987      6.11271      155.447 
0.000367404     0.456508      118.811 
0.000521077     0.449444      147.724 
0.000279069     0.693109      133.831 
9.54231e-05      1.80422      148.601 
0.000328480      1.95489      131.682 
0.000186129      1.81648      151.742 
9.42248e-05      1.43402      140.092 
9.37629e-05      2.44238      152.176 
9.29043e-05      2.37023      148.456 
9.28256e-05      1.81218      137.684 
0.000348940      1.42127      140.711 
0.000266544      6.26163      152.616 
0.000134242      1.78718      148.266 
9.01411e-05      2.36381      147.789 
0.000506017      1.80710      152.301 
8.90686e-05      2.47782      152.608 
0.00128989     0.220000      90.0000 
0.000319078      1.79878      138.155 
0.000171545      1.41873      139.574 
8.76582e-05     0.693109      136.169 
8.75840e-05      6.28859      152.539 
8.74204e-05      2.35771      147.119 
0.000360465      1.54674      130.280 
0.000134793      1.79778      147.724 
0.000105520      2.39140      150.433 
0.000538104     0.707107      135.000 
0.00158571     0.228035     -164.745 
0.000388639      1.54932      129.237 
8.40290e-05      6.32484      152.301 
0.000115059      1.94000      132.075 
0.000528325      1.81472      148.062 
0.000382546      2.35194      146.445 
0.000461124     0.474131      117.646 
8.34936e-05      2.26292      153.208 
0.000162506      2.53124      153.232 
8.25049e-05      6.27025      152.863 
0.000310176      6.35185      152.225 
0.000288389      2.38403      149.778 
8.00888e-05      6.26115      153.026 
0.000484440      2.08403      127.200 
0.000414821      1.42843      134.433 
0.000152842     0.200998     -84.2894 
0.000156652      1.40584      140.194 
0.000377638      1.96825      132.117 
0.000153537      6.27898      153.108 
0.000213827      2.24758      150.698 
0.000151986      1.82702      138.106 
7.69195e-05      2.54912      153.435 
0.000431861      1.79789      152.865 
0.000355338      1.95346      132.510 
0.000569058     0.816088      126.027 
0.000289652      6.06801      155.462 
0.000150169      1.40357      139.044 
0.000631589     0.466476      149.036 
0.000463212      1.44278      133.877 
7.51713e-05      5.97532      154.207 
7.49296e-05      6.30968      155.466 
0.000145842      2.56702      153.635 
0.000431113     0.297321      160.346 
0.000144818      6.28783      153.353 
0.000214481      5.95731      154.123 
0.000262816     0.722496      138.366 
0.000209001      6.32787      155.541 
0.000142747      1.39054      139.667 
0.000210116      6.37887      152.149 
0.000245908      2.35983      148.870 
7.17193e-05      1.81373      138.576 
0.000389004      1.53675      128.660 
0.000136092      2.23016      150.446 
0.000195835      2.34649      145.768 
0.000202893      6.30571      153.435 
0.000329534      1.37535      139.128 
6.94025e-05      2.58496      153.831 
0.000130074      1.53154      130.764 
6.89902e-05      1.95898      139.970 
0.000321458      1.81571      153.153 
0.000385745      5.93933      154.039 
6.80338e-05      1.77234      130.882 
0.000598171     0.465188      115.463 
0.000299685     0.203961      11.3099 
6.76913e-05      2.26318      154.341 
0.000318603      2.62968      153.825 
0.000105451      1.98716      139.899 
6.65568e-05      6.03887      152.162 
0.000240569     0.220907     -84.8056 
0.000424683     0.844038      126.327 
6.60069e-05      6.36119      152.065 
0.000191399      6.05974      155.634 
0.000308220      1.82538      147.529 
0.000188794      6.34609      155.616 
6.50126e-05     0.716101      144.090 
0.000125151      1.38852      138.504 
6.42428e-05      6.02120      152.073 
0.000126210      6.32361      153.516 
6.38389e-05     0.688186      125.538 
0.000243770      6.38824      151.991 
6.32333e-05      2.33529      146.174 
0.000120889      1.45726      133.332 
0.000122425      2.08038      127.972 
6.28350e-05      2.21278      150.191 
6.26873e-05      1.75932      130.389 
0.000362458     0.710211      147.653 
0.000104043      2.00250      140.268 
0.000443137      2.35321      148.201 
0.000225383      6.00353      151.984 
0.000169719     0.721388      136.123 
6.08615e-05      1.96703      132.940 
0.000223449     0.721110      146.310 
0.000238831      2.01792      140.631 
0.000232650      6.34151      153.597 
0.000118798      1.74642      129.890 
0.000176396      2.82708      152.166 
5.96000e-05      6.07796      155.712 
0.000761831      1.80677      153.719 
0.000117430      1.36235      139.764 
0.000229122      5.91260      154.128 
0.000330965      6.36431      155.690 
5.87432e-05      2.25460      154.799 
0.000281460      5.81653      151.673 
0.000221403      2.64764      154.016 
5.77696e-05      1.98172      132.546 
0.000418296      2.03657      141.780 
5.70368e-05      6.09620      155.789 
0.000105013      1.37244      136.771 
5.67957e-05      6.41529      151.917 
0.000106851      2.20291      150.642 
5.65500e-05      1.73367      129.382 
5.65548e-05      1.36015      143.973 
0.000462606      3.45601      163.872 
0.000162053      6.86361      151.643 
0.000430747      2.03342      140.988 
0.000284733      1.52801      127.020 
0.000101290      1.86387      146.821 
0.000158220      2.35780      145.366 
0.000161862      2.83648      151.809 
0.00106699      4.27355      165.639 
0.000109561      1.34848      144.660 
5.54047e-05      1.98313      131.730 
0.000108623     0.682642      121.827 
0.000214128      1.97960      161.748 
0.000108217      6.39766      151.833 
0.000107604      1.38708      137.337 
0.000690630      6.87314      151.496 
0.000107137      6.11444      155.866 
0.000208941      1.74917      128.967 
5.47085e-05      6.35943      153.677 
0.000263520     0.832346      125.218 
5.42738e-05      1.35351      145.840 
0.000256934      5.89461      154.044 
5.37442e-05      6.26386      149.915 
0.000102328      1.98977      129.289 
0.000155141      1.84716      146.482 
0.000104730      2.69236      154.006 
5.34840e-05      1.37361      137.951 
0.000149301      2.24615      155.260 
0.000105018      6.36855      153.918 
0.000293517      2.23517      136.450 
0.000155991      1.35912      147.011 
0.000330209      6.76287      154.420 
0.000103029      2.10000      126.870 
0.000151684      8.88585      150.319 
0.000101954      5.75423      151.564 
0.000471298      1.54467      131.325 
0.000191011      2.34691      147.529 
9.99881e-05      5.79893      151.579 
5.12721e-05      6.38003      151.748 
5.10445e-05     0.672309      120.379 
5.10821e-05      1.54013      127.614 
0.000163690      1.99279      128.480 
0.000947413      1.97342      162.300 
0.000142298      1.51605      143.584 
0.000192543      2.85412      151.998 
9.90352e-05      6.13270      155.943 
0.000445234      1.38622      136.169 
5.02252e-05      6.19926      150.209 
0.000191541     0.735935      137.203 
5.00865e-05      1.72534      135.000 
9.89662e-05      1.34833      147.724 
0.000768471      4.94813      163.323 
0.000182640      2.73708      153.997 
0.000229828      6.38652      153.997 
0.000579806     0.483322      114.444 
0.000493741     0.848764      124.439 
9.65330e-05      6.38254      155.764 
0.000642853      2.89689      162.316 
4.90633e-05      6.36242      151.663 
0.000186497      2.09246      125.665 
0.000140095      2.60292      154.026 
8.88091e-05      6.31854      149.783 
0.000268785      1.73666      128.454 
9.39856e-05      3.94614      155.123 
0.000795061      3.46976      164.281 
4.81541e-05     0.689638      119.539 
0.000187174      1.32740      149.184 
0.000175808      5.95883      151.973 
0.000168161     0.316228      161.565 
4.76399e-05      5.88588      154.219 
9.34327e-05      6.15097      156.019 
4.74724e-05      6.17197      150.278 
0.000644651      7.85155      144.853 
0.000182379      3.33143      158.518 
0.000136366     0.680000      118.072 
0.000214116      1.34402      143.471 
9.15817e-05      5.73665      151.469 
0.000180232      2.24971      136.801 
4.66754e-05      6.32724      151.491 
0.000178895      5.86788      154.134 
0.000507449      8.90324      150.383 
9.11484e-05      1.54842      144.462 
0.000248505      6.75426      154.573 
4.54025e-05      6.27458      151.229 
8.68785e-05      6.40078      155.838 
0.000129918      6.63063      151.734 
8.68348e-05      3.76431      143.861 
0.000231159      2.25610      155.934 
4.45472e-05      6.12457      156.113 
0.000214360      1.31727      149.931 
4.44883e-05      2.02089      141.429 
0.000171842      2.87179      152.186 
8.60895e-05      4.28789      146.606 
0.000149134     0.223607     -79.6952 
8.63485e-05      6.17948      150.531 
4.37942e-05      6.41903      155.911 
0.000193597      3.92800      155.001 
8.51197e-05     0.749667      136.081 
8.25377e-05      1.71126      134.526 
0.000164165      2.55820      154.036 
4.31642e-05      5.98588      151.894 
4.30663e-05      6.16925      156.094 
0.000487842      2.09724      124.902 
8.44362e-05      3.31282      158.391 
0.000157991      6.40450      154.075 
0.000262629      1.53219      125.972 
0.000171286      2.37428      145.641 
8.29331e-05     0.670820      116.565 
4.23554e-05      5.76378      151.390 
0.000313696      9.41550      148.640 
8.32167e-05      6.14287      156.189 
0.000197939      3.35863      162.320 
0.000192104      1.86955      145.460 
0.000195652      3.50228      158.563 
0.000558547      2.26345      136.432 
0.000158729      5.84116      154.225 
4.15579e-05     0.483735      150.255 
8.08660e-05      5.94118      151.882 
7.94193e-05      6.22206      150.963 
7.97185e-05      1.77020      147.926 
0.000213294      1.55795      131.878 
7.95452e-05      6.11882      154.440 
4.07231e-05     0.764199      137.121 
4.05566e-05      5.71909      151.374 
0.00117178     0.240000      90.0000 
0.00108101      1.30736      150.690 
7.95092e-05      6.46579      156.289 
0.000148698      10.1781      148.090 
7.97683e-05      2.88950      152.371 
0.000112118      3.29424      158.263 
0.000446955      1.72430      127.933 
3.98971e-05      1.53219      144.028 
3.98457e-05     0.834506      135.971 
0.000151251      6.16117      156.264 
0.000278297      9.58008      146.841 
8.94986e-05      6.24743      151.302 
0.000244594      1.37186      135.591 
0.000188921     0.662118      115.017 
3.92128e-05      6.64825      151.816 
3.91249e-05      2.71035      154.191 
0.000219701     0.865332      123.690 
0.000234512      4.27691      146.830 
0.000149985      2.90723      152.554 
0.000252249     0.848999      136.909 
7.52478e-05      5.74623      151.294 
0.000258215      2.05232      142.125 
0.000224047      9.59104      146.741 
0.000565827      10.2057      148.054 
0.000178490      1.34015      142.275 
0.000201298     0.243310     -170.538 
0.000110092     0.220000      0.00000 
7.50962e-05      6.48410      156.361 
0.000366046      6.67533      151.746 
0.000142446      6.78498      149.731 
0.000162796      3.74817      143.680 
3.74369e-05      1.58114      145.305 
3.73320e-05      6.15493      154.601 
3.72850e-05      2.72837      154.374 
0.000137172      3.27567      158.134 
0.000364663      3.52091      158.682 
0.000341017      9.28177      151.281 
0.000664524      1.54311      132.374 
0.000139132      5.82316      154.139 
0.000102292      8.31048      145.392 
7.22756e-05      2.57620      154.231 
0.000590342      4.25417      165.572 
0.000170094      4.59848      160.698 
7.00773e-05      1.59762      145.713 
3.59722e-05      6.16458      150.025 
0.000337996      3.33958      162.216 
0.000130742      2.34009      161.565 
0.000103517      6.42249      154.153 
0.000103151      1.81604      154.564 
3.57386e-05      5.97649      152.063 
7.08468e-05      4.95391      163.101 
0.000463983      5.90623      157.082 
0.000138695      2.92500      152.734 
7.01743e-05      6.50243      156.431 
9.90631e-05      6.73620      154.500 
3.52662e-05      5.76590      144.601 
3.51439e-05      6.17301      154.680 
0.000231832     0.653911      113.429 
0.000123460      5.72870      151.198 
0.000111555      9.59683      146.906 
0.000176128      6.22990      151.213 
0.000213490      3.91203      163.974 
9.88277e-05      2.74642      154.555 
0.000287972      4.61736      160.780 
0.000293250     0.220907      5.19443 
3.43700e-05      3.25712      158.003 
0.000348913      4.97305      163.168 
6.80694e-05      1.35794      136.193 
