! Center RA: 16 13 41.06424,  Dec: +34 12 47.90878 (2000.0)
! Established model.
! Flux (Jy) Radius (mas)  Theta (deg)  Major FWHM (mas)  Axial ratio   Phi (deg) T \
! Freq (Hz)     SpecIndex
  0.155477      0.00000      0.00000 
 0.0197693    0.0282843     -45.0000 
 0.0733273    0.0200000     -90.0000 
 0.0635102    0.0200000      0.00000 
 0.0837297     0.349857      30.9638 
0.00527187    0.0282843     -135.000 
0.00513827    0.0894427     -153.435 
 0.0266143     0.322490      29.7449 
 0.0134312    0.0400000      0.00000 
 0.0145052     0.107703     -158.199 
 0.0138638    0.0632456      18.4349 
 0.0178019     0.126491     -161.565 
 0.0207999    0.0824621      14.0362 
 0.0201414     0.145602     -164.055 
0.00397917    0.0894427      26.5651 
0.00381116     0.144222      33.6901 
0.00745808     0.164924     -165.964 
 0.0140856    0.0600000      0.00000 
 0.0560812     0.188680      32.0054 
 0.0470435     0.367151      29.3578 
 0.0105938     0.184391     -167.471 
0.00668586     0.203961     -168.690 
 0.0154724    0.0447214     -26.5651 
0.00641976     0.220907     -174.806 
 0.0205427     0.240832     -175.236 
 0.0211225    0.0632456     -18.4349 
0.00271129     0.189737     -161.565 
 0.0408386     0.394462      30.4655 
0.00521913     0.260000      180.000 
0.00264260     0.116619     -149.036 
0.00259766     0.280000      180.000 
0.00250342     0.228035     -164.745 
0.00536866     0.184391      167.471 
0.00244410     0.280713     -175.914 
 0.0132741     0.233238      30.9638 
0.00240778     0.144222     -146.310 
0.00239285     0.203961      168.690 
0.00683948     0.300666     -176.186 
0.00448761     0.100000      0.00000 
 0.0151671     0.189737      161.565 
0.00231657     0.234094     -160.017 
0.00671911    0.0824621     -14.0362 
0.00529475     0.128062     -141.340 
0.00625755     0.320624     -176.424 
0.00211291     0.252982     -161.565 
0.00785947     0.101980     -11.3099 
0.00593609     0.113137     -135.000 
0.00742423     0.205913      29.0546 
0.00199477     0.178885      153.435 
0.00561820     0.272029     -162.897 
0.00198088     0.288444      123.690 
0.00563602     0.120000      0.00000 
 0.0300351     0.250599      28.6105 
0.00920515     0.340000      180.000 
0.00555728     0.196977      156.038 
 0.0140552     0.300000      126.870 
0.00453709     0.208806      163.301 
0.00181110     0.100000     -126.870 
0.00180194     0.228035      164.745 
0.00362795     0.316228      124.695 
 0.0128574     0.121655     -9.46232 
0.00180647     0.128062     -128.660 
 0.0256775     0.421900      31.4296 
 0.0127859     0.215407      158.199 
0.00482856     0.291204     -164.055 
0.00487671     0.411825      119.055 
0.00855703     0.116619     -120.964 
0.00324184     0.340588      176.634 
0.00156632     0.278568     -158.962 
 0.0139639     0.429418      117.759 
0.00445436     0.312410      129.806 
0.00151749     0.178885      26.5651 
0.00288869     0.360555      176.820 
0.00596504     0.234094      160.017 
0.00282245     0.404969      32.9052 
0.00268568     0.310483     -165.069 
0.00925313     0.107703     -111.801 
0.00143440     0.140000      0.00000 
0.00401589     0.360000      180.000 
0.00785498     0.297321     -160.346 
0.00670979     0.311127      135.000 
 0.0168716     0.141421     -8.13010 
0.00272028     0.252982      161.565 
0.00131011     0.260000      157.380 
0.00799369     0.121655      99.4623 
0.00990777     0.268328      26.5651 
0.00253341     0.278568      158.962 
0.00246332     0.325576      132.510 
 0.0121483     0.420476      115.346 
0.00464839     0.297321      160.346 
0.00233910     0.325576      137.490 
0.00749153     0.380000      180.000 
 0.0214566     0.101980     -101.310 
 0.0159786     0.120000      90.0000 
0.00534818     0.339411      135.000 
0.00819135     0.323110      158.199 
0.00880829     0.316228     -161.565 
0.00299754     0.241661      24.4440 
0.00107413     0.329848     -165.964 
0.00928329     0.449444      32.2756 
0.00290365     0.331059      154.983 
0.00381559     0.353836      132.709 
 0.0160532     0.161245     -7.12502 
0.00795819     0.430813      111.801 
0.000968583     0.160000      0.00000 
0.00279287     0.300000      36.8699 
0.00262120     0.400000      180.000 
0.00176176     0.412311      129.094 
0.00417142     0.349285      156.371 
0.00416582     0.260000      22.6199 
0.00865123     0.425206      131.186 
0.00395107     0.400500      177.138 
0.000858140     0.353836      137.291 
0.00167778     0.284253      39.2894 
0.00240224     0.335261     -162.646 
0.00231712     0.340588      139.764 
0.000810512     0.360555      160.560 
 0.0101503     0.466476      30.9638 
0.000796223     0.297321      42.2737 
0.00294039     0.252982      18.4349 
0.000861460     0.141421      98.1301 
0.00879149     0.442719      108.435 
0.00148161     0.145602     -15.9454 
0.00363176     0.282843      45.0000 
 0.0119136     0.323110     -158.199 
0.00316638     0.140000      90.0000 
0.00207993     0.367696      157.620 
0.000710641     0.398497      162.474 
0.00426192     0.420476      177.274 
0.00303555     0.344093      144.462 
0.000692547     0.440454      129.472 
0.000684069     0.421900      174.560 
0.00187990     0.357771      153.435 
0.00315125     0.272029      17.1027 
0.000666954     0.412311      165.964 
0.000663708     0.269072      48.0128 
0.00169181     0.349857      149.036 
0.00428047     0.164924     -14.0362 
0.00406657     0.272029      53.9726 
0.00466176     0.121655     -99.4623 
0.00289638     0.431741      166.608 
0.00578697     0.453431      131.424 
0.000625863     0.278568      21.0375 
0.00167009     0.100000     -90.0000 
0.00114908     0.297321      19.6538 
 0.0117531     0.483735      29.7449 
0.00218397     0.436807      105.945 
0.00258578     0.291204      15.9454 
0.00190178     0.420000      180.000 
0.00435468     0.474131      27.6460 
0.00102684     0.260768      57.5288 
0.000527692     0.438634      133.152 
0.00701110     0.120000     -90.0000 
0.00406926     0.451221      167.196 
0.00376643     0.456070      105.255 
0.000502890     0.436807      164.055 
0.000492335     0.356090      141.843 
0.00419856     0.268328      63.4349 
0.00134693     0.367151      150.642 
0.000896432     0.316228      18.4349 
0.00629584     0.341760     -159.444 
0.00406912     0.310483      14.9314 
0.00169090     0.360555      146.310 
0.000446665     0.349285      113.629 
0.000440771     0.466905      133.264 
0.000428956     0.331059      115.017 
0.00124231     0.480833      135.000 
0.00199913     0.470744      102.265 
0.00174037     0.316228      108.435 
0.000404766     0.440454      177.397 
0.00150838     0.495177      136.637 
0.00183512     0.470744      167.735 
0.000755639     0.341760      110.556 
0.00101393     0.277849      59.7436 
0.00218416     0.180000      0.00000 
0.00177313     0.490306      101.768 
0.00167704     0.335261      17.3540 
0.000693090     0.440000      180.000 
0.00132910     0.377359      147.995 
0.000363990     0.456070      164.745 
0.000363152     0.170880     -20.5560 
0.000358140     0.456508      118.811 
0.00171173     0.305941      101.310 
0.00134297     0.509902      138.180 
0.00357676     0.475395      165.379 
0.000346509     0.420476     -177.274 
0.000344373     0.178885     -26.5651 
0.000343241     0.335261      107.354 
0.000997679     0.302655      97.5946 
0.000334292     0.477074      123.024 
0.000618700     0.372022      143.746 
0.000649281     0.486621      99.4623 
0.000328324     0.188680     -32.0054 
0.00176555     0.329848      14.0362 
0.000587125     0.322490      97.1250 
0.000319272     0.466476      120.964 
0.000317732     0.184391     -40.6013 
0.000535907     0.300000      90.0000 
0.00235848     0.313050     -153.435 
0.00119119     0.509902      101.310 
0.00146941     0.524976      139.635 
0.00143718     0.440454     -177.397 
0.000599488     0.184391     -49.3987 
0.00143475     0.493964      121.759 
0.00126742     0.491935      26.5651 
0.000814547     0.300666      86.1859 
0.000300828     0.200000     -36.8699 
0.000299496     0.181108      6.34019 
0.000298111     0.126491     -108.435 
0.00180604     0.278568      68.9625 
0.000571255     0.323110      111.801 
0.00110080     0.506360      99.0903 
0.000287569     0.320624      86.4237 
0.000565808     0.141421     -98.1301 
0.00106462     0.354401      16.3895 
0.000283850     0.216333     -33.6901 
0.000547842     0.401995      84.2894 
0.00100442     0.200000      0.00000 
0.00171843     0.100000      90.0000 
0.000545880     0.197990     -45.0000 
0.000272774     0.461736      162.350 
0.000270188     0.388330      145.491 
0.000268397     0.295296     -151.699 
0.00237276     0.540370      141.009 
0.000653221     0.310483      104.931 
0.000522017     0.145602     -105.945 
0.000512470     0.241661     -24.4440 
0.000508372     0.188680     -57.9946 
0.000487559     0.504777      123.690 
0.000504732     0.441814     -174.806 
0.000255693     0.411825      150.945 
0.000720908     0.404475      81.4692 
0.000477916     0.313050      116.565 
0.00161854     0.200000     -53.1301 
0.000483702     0.272029     -143.973 
0.000737229     0.529528      100.886 
0.00138563     0.349285      13.2405 
0.000250563     0.511077      120.579 
0.000953600     0.480833      163.072 
0.000246781     0.256125     -141.340 
0.000696699     0.220000      0.00000 
0.00132756     0.521536      122.471 
0.000810290     0.216333     -123.690 
0.000456773     0.480416      177.614 
0.000465645     0.404969      147.095 
0.000463929     0.252982     -18.4349 
0.000459696     0.424264      81.8699 
0.000235274     0.373631     -164.476 
0.00109870     0.533667      102.995 
0.000230970     0.460435     -177.510 
0.000314126     0.407922      78.6901 
0.000995423     0.134164     -116.565 
0.00120313     0.300666      93.8141 
0.000639590     0.373631      15.5241 
0.00175035     0.101980      101.310 
0.000993103     0.490306      168.232 
0.000652129     0.223607     -116.565 
0.000222474     0.424264     -171.870 
0.000219801     0.468188      160.017 
0.00102471     0.427551      79.2157 
0.00141505     0.272029      72.8973 
0.000214896     0.456946      156.801 
0.000419072     0.272029     -17.1027 
0.00200383     0.164924      165.964 
0.000610440     0.407922     -168.690 
0.000777334     0.240000      0.00000 
0.000208393     0.360555     -160.560 
0.000405440     0.475395      157.751 
0.000987029     0.212603     -48.8141 
0.00117075     0.282843      81.8699 
0.000404886     0.501597      175.426 
0.000385687     0.328024      127.569 
0.000959623     0.234094     -109.983 
0.000397578     0.538516      121.329 
0.00178129     0.556058      142.306 
0.000202569     0.487032      160.821 
0.000583986     0.557853      104.534 
0.000932920     0.368782      12.5288 
0.000894654     0.304631      113.199 
0.000380767     0.291204     -15.9454 
0.000191661     0.465188      154.537 
0.000190806     0.461736     -175.030 
0.00103573     0.553173      102.529 
0.000366326     0.392938      14.7436 
0.00173173     0.288444     -146.310 
0.000366883     0.501199      28.6105 
0.00358259     0.431741      76.6075 
0.000367718     0.532541      124.287 
0.000711767     0.483322      155.556 
0.000532986     0.444072     -172.235 
0.000184157     0.573062      119.249 
0.000361952     0.503587      173.157 
0.000264333     0.240832      4.76364 
0.000530183     0.226274     -45.0000 
0.000351159     0.493964      31.7595 
0.000766417     0.331059     -154.983 
0.000176904     0.590593      118.301 
0.00282391     0.161245      172.875 
0.000342282     0.297321     -19.6538 
0.000700122     0.280713      85.9144 
0.000341669     0.528015      127.304 
0.00230881     0.247386     -104.036 
0.000173314     0.477074      33.0239 
0.000803314     0.228035     -52.1250 
0.000336999     0.600333      119.982 
0.000486028     0.260000      0.00000 
0.000475482     0.506360      170.910 
0.00211791     0.388330      11.8887 
0.000603771     0.501597      23.4986 
0.000636534     0.481664     -175.236 
0.000165231     0.501597      156.501 
0.00103250     0.488262      34.9920 
0.000620983     0.610574      121.608 
0.000295025     0.549181      146.889 
0.000852851     0.316228     -18.4349 
0.000346501     0.472017      36.3844 
0.00199465     0.494773      165.964 
0.000458888     0.538145      131.987 
0.000158127     0.509902      154.440 
0.000156194     0.310483     -14.9314 
0.000422250     0.553173      139.399 
0.000587178     0.549181      100.491 
0.00177595     0.545894      151.557 
0.000905610     0.493964      21.3706 
0.000150638     0.538516      148.671 
0.000148978     0.520000      180.000 
0.000147193     0.240832     -41.6335 
0.000421557     0.280000      0.00000 
0.000146012     0.617738      119.055 
0.000399718     0.463897     -172.569 
0.00132312     0.512640      20.5560 
0.00116182     0.240832     -48.3665 
0.000283422     0.621289      123.179 
0.000413506     0.520384     -177.797 
0.000657081     0.545894      98.4270 
0.00148354     0.107703      111.801 
0.000395049     0.551725      136.469 
0.000530972     0.638122      122.196 
0.000268707     0.551725      133.531 
0.00119241     0.266833      77.0054 
0.00218664     0.484149      38.2902 
0.000378423     0.364966      9.46232 
0.00105190     0.509902      168.690 
0.000847047     0.505964      18.4349 
0.000482026     0.540370     -177.879 
0.000125708     0.648999      123.690 
0.00173880     0.305287     -148.392 
0.000125669     0.300000      0.00000 
0.000574741     0.436807      74.0546 
0.00183623     0.126491      108.435 
0.00107515     0.335261     -17.3540 
0.000123407     0.644050      126.158 
0.000239364     0.617414      114.905 
0.000120344     0.540000      180.000 
0.000462570     0.656049      127.569 
0.000461210     0.543323      96.3402 
0.00131595     0.566392      137.862 
0.000232977     0.320624      3.57633 
0.000653459     0.407922      11.3099 
0.00125583     0.254558     -45.0000 
0.000414202     0.555698      149.744 
0.000775135     0.447214     -169.695 
0.000217216     0.565685      135.000 
0.000113443     0.560000      180.000 
0.000710390     0.635610      114.146 
0.000835373     0.384708      8.97263 
0.000405689     0.668431      128.928 
0.000411520     0.541479      94.2364 
0.000507422     0.560357     -177.955 
0.00124945     0.263059     -98.7462 
0.000207477     0.672012      126.529 
0.000304177     0.340588      3.36646 
0.000375404     0.349285     -13.2405 
0.000524286     0.145602      164.055 
0.00100393     0.563560      152.526 
0.000274368     0.580000      180.000 
0.000186209     0.684105      127.875 
0.000976673     0.540370      92.1211 
0.000610929     0.644050      115.769 
0.000179009     0.681175      130.236 
0.000154441     0.360555      3.17983 
0.000334780     0.580345     -178.025 
8.59513e-05     0.491935      116.565 
0.000697881     0.696563      129.174 
8.44575e-05     0.382099      6.00901 
8.32809e-05     0.354401     -16.3895 
0.000633277     0.653911      113.429 
0.000820528     0.540000      90.0000 
0.000158503     0.244131     -55.0080 
0.000542736      5.20138      159.753 
8.09023e-05     0.483322      114.444 
0.000454093     0.341760     -20.5560 
0.000509584      4.71966      148.870 
0.000410023     0.380526     -3.01279 
0.000227507     0.417612      73.3008 
7.73474e-05     0.526118      171.254 
0.000313740     0.325576      100.620 
0.000152183     0.600333     -178.091 
0.000138004     0.501597      113.499 
0.000288722     0.581378      139.185 
0.000146507     0.256125     -51.3402 
7.35198e-05     0.220907      5.19443 
0.000116789     0.563205      173.884 
0.000221521      5.18035      143.794 
7.25570e-05     0.601332     -176.186 
7.20220e-05     0.500000      163.740 
0.000160889     0.342345      96.7098 
7.17065e-05     0.400000      0.00000 
7.07894e-05     0.543323      173.660 
0.000334195     0.360555      93.1798 
0.000678125     0.252982      71.5651 
0.000129168     0.362215      96.3402 
0.000372398     0.622896      132.397 
0.000601240     0.156205     -129.806 
0.000647761     0.588558      170.218 
0.000246277     0.382099      96.0090 
0.000347911      5.34243      151.612 
0.000953577     0.560357      145.176 
0.000765507      5.35059      151.902 
0.00100378     0.466905     -170.134 
0.000341216     0.512640      110.556 
0.000222967     0.184391     -130.601 
0.000653242     0.345254     -10.0080 
0.000116050     0.637809      131.186 
0.000526260     0.651153      132.510 
0.000111469     0.380526      93.0128 
0.000322712     0.456946      23.1986 
0.000318670      4.96327      148.680 
0.000282254     0.572713      167.905 
0.000620680     0.141421     -135.000 
0.000401370      4.79533      152.152 
0.000205502     0.602993      174.289 
0.000560949     0.121655      170.538 
0.000394013      4.78138      149.036 
0.000200649     0.544059      162.897 
0.000633149     0.449444      20.8545 
0.000357087     0.520000      112.620 
0.000100462      4.80471      151.942 
0.000197337     0.666033      131.348 
0.000287449      4.97369      148.483 
9.86784e-05     0.212603     -131.186 
0.000424376      5.16147      152.541 
0.000602976     0.364966     -9.46232 
9.70834e-05      5.33442      151.321 
0.000518528     0.621289      176.309 
0.000689399     0.486621     -170.538 
0.000749079      5.15302      152.241 
9.42468e-05      5.35888      152.192 
0.000232691     0.228035     -127.875 
9.37448e-05      4.77678      152.577 
0.000182111     0.550273      160.907 
0.000638073      5.21513      154.319 
9.34124e-05     0.560357      92.0454 
9.19134e-05      5.32654      151.029 
0.000871140     0.679412      132.614 
0.000176503      4.78707      151.829 
0.000180195      4.76424      148.912 
0.000265359      5.18961      159.470 
0.000176274      4.76760      152.790 
0.000257836      5.37658      152.291 
8.82412e-05      4.81415      151.731 
0.000651765      4.99075      148.603 
0.000250718      5.30905      150.924 
0.000622065     0.560000      90.0000 
0.000467332     0.572014      143.531 
0.000327762      4.75395      149.119 
0.000541244      4.87582      146.375 
8.51556e-05     0.286356     -24.7751 
0.000219803     0.563205      163.496 
0.000700288     0.423792      19.2900 
0.00130570      5.17088      159.392 
0.000770921     0.382099     -6.00901 
0.000162622      4.77632      153.113 
0.000774030      5.04480      156.891 
0.000445439      4.79654      151.618 
8.12332e-05     0.277849     -30.2564 
8.10079e-05     0.557136      158.962 
8.03738e-05     0.247386      75.9638 
0.000516214     0.622896      174.472 
7.85847e-05      5.38505      152.578 
0.000143792     0.569210      161.565 
0.000292614      4.78519      153.435 
0.000817105      5.30136      150.630 
0.000214547     0.295296     -28.3008 
0.000416233     0.662118      115.017 
0.000601819      5.40281      152.676 
0.000143753     0.572713      155.225 
7.45294e-05      4.74713      148.788 
0.000416764      4.69553      156.930 
0.000539966     0.528015      114.624 
0.000142836      4.73003      148.662 
7.18926e-05     0.506360     -170.910 
0.000140830      4.87032      146.049 
7.02613e-05     0.243310      80.5377 
0.000542274      5.68957      152.354 
0.000388403     0.243310     -99.4623 
0.000136557     0.526118     -171.254 
0.000128618     0.329848      104.036 
0.000839006      4.16125      155.283 
0.000133521      4.71296      148.536 
6.72125e-05      4.88152      145.854 
0.000595216     0.560357      87.9546 
0.000181094      4.83011      153.965 
0.000254682      4.73831      160.265 
0.000368280     0.707672      132.709 
0.000250706      5.18475      144.103 
0.000279000     0.640312      178.210 
6.47790e-05      4.76944      151.716 
0.000509421     0.584123      141.953 
0.000620999     0.545894     -171.573 
0.000294135      5.70656      153.794 
0.000291360      4.89277      145.660 
0.000401445      4.67714      156.834 
