! Center RA: 16 42 58.80997,  Dec: +39 48 36.99402 (2000.0)
! Established model.
! Flux (Jy) Radius (mas)  Theta (deg)  Major FWHM (mas)  Axial ratio   Phi (deg) T \
! Freq (Hz)     SpecIndex
  0.561757      0.00000      0.00000 
  0.129704    0.0200000      90.0000 
 0.0683049    0.0447214     -63.4349 
 0.0673250    0.0447214      116.565 
  0.101757    0.0632456     -71.5651 
  0.252744    0.0632456      108.435 
 0.0551119    0.0600000     -90.0000 
  0.370505    0.0800000     -90.0000 
  0.304940    0.0824621      104.036 
  0.143799     0.100000     -90.0000 
  0.275026    0.0800000      90.0000 
  0.187725     0.101980     -101.310 
 0.0315146    0.0632456     -18.4349 
 0.0675305     0.126491     -108.435 
 0.0810184     0.101980      101.310 
 0.0470017    0.0824621     -14.0362 
 0.0253025    0.0721110     -33.6901 
0.00802889     0.107703      111.801 
0.00563771     0.200998     -95.7106 
0.00346084     0.203961     -101.310 
 0.0433121     0.107703     -111.801 
 0.0263233      2.05767     -105.792 
0.00784947     0.220907     -95.1944 
 0.0200876      2.04402     -106.484 
 0.0160685     0.223607     -100.305 
 0.0194985     0.243310     -99.4623 
 0.0331769     0.760263     -88.4926 
 0.0243353     0.134164      116.565 
0.00318034      2.09093     -104.967 
0.00384134      2.02485     -106.645 
0.00169428      2.10038     -103.772 
0.00643993      1.65215     -96.9530 
0.00838347      2.00569     -106.809 
 0.0123933      2.10523     -104.300 
 0.0145615      1.42352     -94.0283 
0.00789197     0.427551     -100.784 
0.00205571     0.126491      108.435 
0.00398574      1.62997     -96.3402 
0.00173963     0.451221     -102.804 
 0.0133888     0.100000      0.00000 
0.00364460     0.247386     -104.036 
0.00162006     0.563205     -96.1155 
0.00588388     0.581378     -93.9452 
0.00749446      1.62788     -95.6405 
0.00186950      1.96469     -104.744 
0.00143206      1.70317     -99.4623 
0.00173264      2.01157     -107.354 
0.00267874     0.266833     -102.995 
0.00767681      1.72627     -100.008 
0.00640498     0.272029     -107.103 
0.00784536     0.583095     -95.9061 
0.00455358      1.94031     -104.323 
0.00215929      2.01762     -107.896 
0.000783983      2.11026     -104.826 
0.00567716      1.42225     -93.2245 
0.00223375      1.60611     -95.0006 
0.00225855      2.11981     -103.643 
0.00300030      2.12462     -104.167 
0.00763692     0.431741     -103.392 
0.000712458     0.241661     -65.5560 
0.00472626      1.47648     -98.5691 
0.00151933      1.79477     -104.191 
0.00302129      1.28763     -96.2419 
0.00429959      1.93546     -103.749 
0.000331529     0.233238     -59.0362 
0.000935571      2.12085     -105.871 
0.000625530      2.09122     -102.707 
0.00336090     0.244131     -55.0080 
0.00196308      1.99860     -108.072 
0.000313815      1.81912     -104.647 
0.000573755      2.08691     -102.171 
0.00573684      2.00489     -108.616 
0.00105838      1.60449     -94.2892 
0.00198708      2.12641     -106.390 
0.00265291      1.79978     -104.808 
0.00806543      2.28543     -98.5556 
0.00624806      1.26775     -96.3402 
0.00318242     0.268328     -116.565 
0.000781684      2.06320     -101.746 
0.000929056      1.70000     -98.7974 
0.00471415      1.74011     -90.6585 
0.000247187      1.81417     -104.036 
0.00359571      1.87297     -96.7456 
0.00111686      2.05922     -101.201 
0.00428706      1.09179     -98.4270 
0.000877217      1.58202     -92.8986 
0.00192634      2.13214     -106.905 
0.00111464      1.76011     -90.6511 
0.00319562      1.62086     -105.751 
0.00199116      1.42127     -92.4195 
0.00193025     0.256125     -51.3402 
0.000400954      1.56051     -91.4688 
0.000198490      2.08279     -101.634 
0.00256748     0.120000      0.00000 
0.00192781      1.56013     -90.7345 
0.000375797      2.07885     -101.094 
0.00167512     0.901998     -86.1859 
0.000693344      2.14401     -104.036 
0.00103680     0.116619     -120.964 
0.00102449      1.47959     -99.3350 
0.00152619      2.13804     -107.418 
0.00211056     0.297321     -132.274 
0.000176496      2.07509     -100.552 
0.00341756      2.09380     -96.5819 
0.00110213      2.30521     -98.4816 
0.000866160      1.80499     -105.422 
-0.00330361     0.101980      168.690 
-0.00580947     0.188680      57.9946 
0.00152084      1.31027     -102.339 
0.000463778     0.740000     -90.0000 
0.00160093      2.09160     -96.0377 
0.00134219      1.56000     -90.0000 
0.00297803    0.0894427     -116.565 
0.00104422      2.14411     -107.928 
0.000449237      2.42792     -101.402 
0.000150267      1.72290     -99.3530 
0.000294461      1.49933     -99.2110 
0.000146076     0.740270     -91.5482 
0.000474362      1.58619     -95.0636 
0.000909355      1.97525     -105.866 
0.000485884      1.56627     -95.1282 
0.000536001      1.74951     -100.539 
0.000838348      1.94535     -104.893 
0.00105841      1.26570     -95.4403 
0.00129748      1.49626     -98.4550 
0.000644333     0.880227     -88.6980 
0.000536559      1.71977     -98.6955 
0.00144249     0.707107     -98.1301 
0.000639752      1.81041     -106.032 
0.00139058     0.880909     -87.3974 
0.00103908      1.74046     -91.3169 
0.000605097      1.87542     -97.3524 
0.000581126     0.380526     -86.9872 
0.000205457      1.98081     -106.422 
0.000400088      2.42124     -97.5946 
0.000202514     0.401995     -95.7106 
0.000936226      1.29074     -102.529 
0.00140838      1.69434     -97.4606 
0.000391238      2.41006     -95.2375 
0.00112050     0.585491     -97.8533 
0.000387411      1.98655     -106.975 
0.00109423      1.81604     -106.639 
0.00143443      1.61555     -105.068 
0.00119711     0.436807     -105.945 
0.000193310     0.280000     -90.0000 
0.000187785     0.280713     -94.0856 
0.000186233      2.42396     -98.0632 
0.00102856     0.263059     -98.7462 
0.000860147      2.40832     -94.7636 
0.000179419      2.42685     -98.5308 
0.000179176      1.42056     -91.6135 
0.00109232     0.710211     -99.7276 
0.000348243      1.99249     -107.526 
0.000343755      2.12960     -104.689 
0.000993882     0.882043     -86.0995 
0.000492985      2.42990     -98.9971 
0.000479391      1.40057     -91.6366 
0.000469699     0.382099     -83.9910 
0.00109586     0.588558     -99.7824 
0.000726828    0.0894427     -63.4349 
0.00152845      1.09490     -99.4623 
0.000304837      1.80887     -108.034 
0.00124590     0.268328     -63.4349 
0.000959703      2.40674     -94.2892 
0.00144345      1.87072     -96.1373 
0.000833992      1.29522     -103.392 
0.000589008      2.43310     -99.4623 
0.000150826      2.38680     -94.3251 
0.000150707     0.883629     -84.8056 
0.00152702     0.100000     -53.1301 
0.00164314      1.40014     -90.8185 
0.000426653     0.885664     -83.5169 
0.00144664      1.81516     -108.635 
0.000405446     0.384708     -81.0274 
0.000699709      1.48297     -100.098 
0.000407654     0.910824     -98.8418 
0.000395733     0.442719     -108.435 
0.000576091      2.24116     -103.416 
0.000973484      1.10725     -110.072 
0.000902137      2.43647     -99.9262 
0.000259135     0.868332     -82.0565 
0.000131667     0.764199     -83.9910 
0.000129378     0.729931     -99.4623 
0.000690338     0.888144     -82.2348 
0.000685787      1.56013     -89.2655 
0.000125057      1.72047     -88.6678 
0.000675285     0.914112     -100.081 
0.000123649     0.713863     -101.310 
0.000606921     0.260768     -94.3987 
0.000237477     0.766551     -82.5041 
0.000755211      2.38537     -93.8460 
0.000351841     0.311127     -135.000 
0.000329038     0.388330     -78.1113 
0.000763155     0.449444     -110.854 
0.000335148     0.733485     -101.004 
0.000924571      1.72105     -88.0021 
0.00153999      2.74925     -98.3659 
0.000404052      2.44000     -100.389 
0.000543015     0.100000     -36.8699 
0.000615176      1.31469     -103.191 
0.000208998     0.277849     -59.7436 
0.000315487     0.373631     -74.4759 
0.000322470     0.312410     -140.194 
0.000509737     0.769415     -81.0274 
0.000632963      2.46089     -97.4716 
0.000705908     0.272029     -53.9726 
0.000739373      1.12606     -109.722 
0.000495609     0.592284     -101.689 
0.00103537      3.41696     -84.2894 
0.000744948      1.86869     -95.5275 
0.00136129      3.73636     -98.0000 
0.00109331     0.328024     -142.431 
0.000783710      2.44369     -100.850 
0.000618129     0.737564     -102.529 
0.000307509      1.26396     -94.5378 
0.00125791     0.891067     -80.9605 
0.00125661      2.15035     -108.435 
0.00260674      2.92007     -89.6076 
0.000730468     0.917823     -101.310 
0.000706498      1.11427     -111.038 
0.000187966      1.67200     -96.8700 
0.00197414      3.90635     -81.1646 
0.00108113      1.20266     -86.1859 
0.00126676      5.62910     -86.7411 
0.000343929      1.56051     -88.5312 
0.000578449      3.44285     -87.6695 
0.00256065      2.52127     -91.8183 
0.000732031      3.75617     -97.9575 
0.000965355      3.57262     -94.8169 
9.19431e-05      2.24589     -103.912 
0.000747268     0.772787     -79.5625 
0.000339370      3.54452     -80.9097 
0.000837047     0.121655      9.46232 
0.000577459      6.34842     -84.5768 
0.000337400      3.60228     -83.6247 
0.000176852      3.64137     -88.4263 
0.000600102      3.28098     -88.6028 
0.00133949      3.44209     -88.0021 
0.00117422     0.172047      125.538 
0.00130230      1.30000     -104.250 
0.000172416      5.50654     -84.3722 
8.64778e-05     0.588218     -107.819 
0.000318351      6.23285     -86.3205 
0.000247961     0.392938     -75.2564 
0.000978057      5.85368     -86.0818 
0.000824826      3.44488     -77.2547 
0.000718322      3.64198     -88.1118 
0.000848738      3.97316     -75.1243 
0.000654599      2.15676     -108.939 
0.000342552     0.456946     -113.199 
8.21591e-05     0.900222     -91.2730 
0.000887516      5.48471     -84.5597 
0.000332128      1.72186     -87.3370 
0.000847064      5.93906     -83.4254 
0.000497913     0.594643     -109.654 
0.00123759     0.260000     -90.0000 
0.000891230      1.75328     -101.182 
0.000348394      1.86687     -94.9166 
0.000994476      6.62607     -83.2396 
0.000297767      1.26254     -93.6330 
0.000690087      2.75224     -98.7778 
0.00116984      3.54773     -80.5908 
0.000761810     0.141421      8.13010 
0.000827483      1.40000     -90.0000 
0.000334986      3.20506     -82.8306 
0.000384601      1.56115     -87.7974 
0.00113607     0.742159     -104.036 
0.000296879      2.20227     -76.3424 
0.000209778      3.60011     -83.9410 
0.000445890      2.11518     -103.116 
0.000482119      3.99284     -85.4032 
7.28786e-05     0.260768     -57.5288 
0.000809531     0.776660     -78.1113 
0.000253013      1.50625     -100.713 
0.00143015      2.85188     -95.2308 
0.000140171      6.23160     -86.5040 
0.000236677      5.63028     -86.5379 
0.000397273      6.00536     -79.2514 
0.000274654    0.0824621     -75.9638 
0.00126215      1.47472     -110.647 
-0.00633503    0.0824621      165.964 
0.00728679     0.156205      129.806 
0.000531550      6.51770     -85.7766 
0.000524950     0.260768     -85.6013 
0.000979342      2.58874     -101.136 
0.00159253    0.0824621     -104.036 
0.000415004      2.26000     -82.3719 
0.000824321      6.20932     -86.8611 
0.000249188      4.10707     -81.3175 
0.000759598      3.57435     -95.1364 
6.53780e-05      2.42033     -100.474 
0.000772743      7.99610     -77.2847 
0.000113552      1.82165     -109.231 
0.000459045      1.94000     -90.0000 
0.000434539     0.272029     -72.8973 
0.000666062     0.921954     -102.529 
0.000354632      2.41677     -100.008 
0.000588261      6.10501     -83.0380 
0.00111839      2.79034     -85.0658 
0.000339987      3.58022     -83.9072 
0.00174369     0.126491      18.4349 
0.000441026      3.23790     -96.0275 
0.000906173      8.07676     -79.4414 
0.000159488      1.11158     -98.2759 
0.000488220      3.38378     -92.7102 
0.00104416      6.39015     -86.7704 
0.000827208      5.91709     -82.0342 
0.000324327      5.56129     -88.7636 
0.000559991      3.98181     -69.1071 
0.000383347     0.344093     -144.462 
0.000493260      6.03258     -78.9136 
0.000951935      4.27444     -80.8462 
0.000853147     0.601664     -111.448 
0.000411841      6.48845     -81.6701 
0.000549712      1.76102     -91.9525 
0.000269643      7.00548     -79.1392 
0.000526908      5.73362     -83.7922 
0.000910327      3.94183     -91.7445 
0.000356496      5.92392     -83.0189 
0.000108644      5.38093     -88.9351 
0.000620045      6.90440     -85.1812 
0.000521812      6.27917     -82.1280 
0.000105201      4.11013     -81.0419 
0.000458068      1.70294     -86.6335 
0.000184217      5.31993     -85.0396 
0.000548475      7.56257     -75.4492 
0.00102488      1.52591     -100.574 
0.000531916      2.41338     -99.5404 
0.000636777      1.13296     -110.674 
0.000253434      5.46293     -84.7486 
0.000309367      1.70423     -85.9623 
0.000101167      1.89789     -97.8739 
0.000243344      5.65608     -78.3722 
0.000609258      3.20262     -83.1856 
9.94028e-05      3.76431     -92.7408 
0.000369344      3.96807     -75.4034 
0.000437687      5.38059     -89.1481 
0.000538851      7.19569     -69.4999 
0.000135735      2.36415     -93.3949 
0.000555340     0.761577     -76.3287 
0.000339116      2.12009     -89.4595 
0.000320540      6.98209     -79.2694 
4.95916e-05      2.61228     -101.482 
0.000504888      7.76116     -72.4522 
0.000221267      1.56205     -87.0643 
0.000348751      2.28254     -81.9409 
0.000555006      3.57816     -84.2257 
0.000202333      5.65024     -86.5502 
0.000316707      1.94010     -89.4093 
0.000180411      7.67880     -76.2895 
0.000434276      6.72336     -85.2222 
0.000248625      1.90074     -98.4711 
0.000837999      5.79828     -94.5503 
0.000398579      3.24006     -96.3792 
0.000482085      6.80802     -81.8937 
0.000433150      3.99129     -85.6894 
8.64487e-05      4.11330     -80.7667 
0.000493757      3.74534     -93.0610 
4.53423e-05      4.40872     -78.4862 
0.00109982      7.45678     -71.2249 
0.000544718      5.46824     -86.8550 
-0.00122044      2.85237     -75.3791 
4.49296e-05     0.398497     -72.4744 
8.70281e-05      1.75727     -101.821 
0.000228390      5.56090     -88.9696 
0.000203393      8.12495     -75.8953 
0.000274663      3.64269     -87.7974 
0.000758253      2.46641     -81.6071 
0.000375822      2.27517     -104.769 
0.000738633      4.44063     -77.7791 
0.000283135     0.747262     -105.524 
0.000440058      5.27731     -80.1807 
4.35220e-05      1.82833     -109.822 
8.48917e-05      5.65208     -78.5708 
0.000427193      6.51920     -85.6013 
0.000179056      4.29334     -76.8053 
0.000237185      5.82591     -75.4867 
0.000104312     0.269072     -48.0128 
0.000244227      8.02002     -77.1767 
0.000710290      1.28577     -105.333 
4.20320e-05      7.56762     -75.3027 
0.000432213      2.74007     -90.4182 
8.16676e-05      7.65465     -76.3995 
0.000114572      6.49138     -81.4954 
0.000282421      6.98584     -79.1083 
0.000263954      7.61288     -74.6129 
0.000380012      3.46883     -77.0054 
0.000251701      3.06653     -93.7395 
7.78393e-05      1.83848     -112.380 
0.000890572      8.31909     -75.6631 
0.000429542     0.926499     -103.736 
3.95068e-05      5.64815     -78.7696 
0.000559521    0.0848528     -45.0000 
0.000290472      7.09606     -77.9616 
0.000111212      5.85235     -86.2771 
0.000200655      7.64997     -76.5451 
0.000823203      8.83647     -82.4568 
0.000392719     0.900000     -90.0000 
7.52542e-05      1.91510     -82.8008 
0.000606128      4.94975     -98.1301 
0.000765383      7.94405     -68.2789 
0.000144764      2.27068     -95.5599 
0.000759116     0.145602      15.9454 
0.000279209      7.38458     -87.9823 
7.41147e-05      5.64429     -78.9688 
0.000895041      6.71077     -93.2461 
0.000137721      1.56320     -86.3322 
-3.71638e-05      7.00337     -63.3618 
0.000749358      6.48901     -71.6767 
3.69024e-05      4.09356     -80.7218 
0.000256992     0.894427     -79.6952 
0.000165742      6.02876     -79.1001 
-0.00132743     0.178885      63.4349 
0.000138910      6.08763     -82.8283 
0.000206065      7.82309     -83.9833 
0.000105036      3.38479     -93.0484 
0.000122936      7.79872     -77.7103 
-0.000297250      7.01236     -63.2157 
0.000732534      2.41015     -99.0715 
0.000768111      5.83095     -75.2964 
0.000460405      8.63134     -79.9920 
0.000345045      5.79496     -72.9409 
0.000680173     0.766551     -74.8760 
0.000223940      1.91771     -82.2079 
0.000238141      1.24258     -93.6914 
6.02213e-05      3.17824     -83.8589 
0.000400974      7.50395     -78.0012 
3.47425e-05     0.266833     -77.0054 
0.000163927      5.64050     -79.1682 
0.000157110      7.02922     -87.0643 
0.000217672      3.46283     -87.6829 
3.45924e-05      2.77200     -98.7147 
9.90934e-05      5.10000     -81.2026 
0.000718591      6.59385     -79.3376 
0.000189735      9.70744     -75.0762 
3.42637e-05      6.03755     -85.6304 
6.52810e-05      7.55757     -75.5960 
6.59878e-05      1.90379     -99.0665 
0.000358057      9.34343     -70.3627 
0.000323230      1.40014     -89.1815 
0.000409070      8.07312     -79.5809 
3.39091e-05      1.84619     -112.954 
0.000572359      7.38003     -67.5354 
0.000306498      8.12985     -75.7586 
0.000349997      9.37957     -71.9900 
0.000338130      3.96308     -75.6832 
3.37187e-05      5.34161     -84.8444 
0.000194936     0.447214     -116.565 
0.000262006      7.75515     -72.5931 
0.000146027      4.09683     -80.4457 
0.000262715      7.23273     -75.4258 
0.000240015      1.20416     -85.2364 
0.000206488      2.48918     -81.2188 
3.28016e-05     0.360555     -146.310 
3.27914e-05      6.93965     -77.6861 
0.000487739      5.89535     -70.5815 
0.000149918      2.26883     -95.0572 
5.74753e-05     0.874757     -79.4608 
0.000424984      5.64907     -86.7527 
0.000178644      7.31259     -80.8726 
0.000616021      6.94395     -77.5249 
0.000147699      6.09016     -82.6416 
0.000610281     0.100000     -126.870 
0.000642569      3.40476     -93.0305 
0.000563644      5.97773     -94.4134 
0.000741831      4.59991     -99.2575 
0.000142113      5.36336     -84.6508 
0.000563544      6.53621     -94.0357 
0.000438574      7.84298     -83.9986 
0.000233336      2.08959     -95.4923 
-0.00115351      2.48129     -88.1524 
8.60483e-05      8.31538     -78.9063 
0.000549343      6.40050     -90.7162 
0.000176128      7.72839     -87.3301 
0.000143451      7.38531     -87.8272 
0.000418989      6.12395     -77.5524 
0.000122924      7.84951     -79.5776 
0.000141148      6.87165     -86.6629 
0.000404760      3.04946     -94.5140 
0.000111465      1.90704     -99.6599 
-0.00520817    0.0632456      161.565 
8.75917e-05      1.56461     -85.6013 
0.000217092      5.88122     -88.8309 
0.000290988      5.63677     -79.3679 
0.000268624      7.20161     -82.5000 
0.000158316      1.76182     -92.6026 
2.98041e-05      9.11010     -76.5434 
5.79373e-05      7.82698     -74.4367 
8.24923e-05      5.10310     -80.9807 
0.000105535      1.96010     -89.4154 
8.09849e-05      1.85408     -113.523 
-0.000301188      2.48202     -87.6909 
0.000106706      7.20272     -69.3509 
0.000141087      5.27394     -80.3948 
-0.000666751      3.42538     -102.819 
0.000258705      2.10000     -90.0000 
0.000415870      9.13893     -76.3287 
0.000258693      1.48189     -111.371 
-0.000254337      6.23233     -67.5499 
0.000306957      8.48401     -75.6689 
0.000149859      2.34418     -93.4239 
0.000180933      6.65555     -81.3586 
0.000246823      2.77510     -99.1229 
0.000168877      7.03028     -86.9015 
2.83055e-05      4.36898     -86.3255 
0.000136590      3.64351     -87.4831 
0.000107269      6.39131     -86.5914 
0.00123485     0.116619      30.9638 
7.02016e-05      7.54957     -87.1149 
7.93339e-05      3.11082     -77.7509 
0.000191640      9.70231     -75.1903 
